time (s)	coil I (A)	last det (V)	int current (uC)
7335.219707	1.224880	0.208364	587.942566
7335.220633	0.585234	0.208364	1129.869629
7335.221523	0.086635	0.208364	1206.974365
7335.222448	0.084851	0.208364	1285.461670
7335.223374	0.084833	0.208364	1364.016846
7335.224293	0.084880	0.208364	1442.021973
7335.225190	0.084877	0.208364	1518.156372
7335.226155	0.084866	0.208364	1600.051758
7335.227090	0.084891	0.208364	1679.425171
7335.227991	0.084917	0.208364	1755.935425
7335.228909	0.084814	0.208364	1833.795044
7335.229842	0.084866	0.208364	1912.974731
7336.271340	1.205175	0.203510	556.790649
7336.272247	0.634984	0.203510	1132.721191
7336.273177	0.086642	0.203510	1213.298096
7336.274075	0.084855	0.203510	1289.497681
7336.275027	0.084939	0.203510	1370.359619
7336.275923	0.084836	0.203510	1446.373047
7336.276814	0.084950	0.203510	1522.063477
7336.277741	0.084895	0.203510	1600.761108
7336.278645	0.084807	0.203510	1677.426758
7336.279568	0.084825	0.203510	1755.720581
7336.280459	0.084862	0.203510	1831.332642
7336.281409	0.084800	0.203510	1911.892456
7337.291753	1.189036	0.214990	550.523499
7337.292647	0.665859	0.214990	1145.801758
7337.293599	0.086796	0.214990	1228.431152
7337.294504	0.084935	0.214990	1305.297607
7337.295406	0.084910	0.214990	1381.886108
7337.296301	0.084888	0.214990	1457.860596
7337.297250	0.084957	0.214990	1538.485107
7337.298161	0.084847	0.214990	1615.781128
7337.299058	0.084866	0.214990	1691.905640
7337.299987	0.084899	0.214990	1770.776489
7337.300887	0.084957	0.214990	1847.238037
7337.301783	0.084851	0.214990	1923.264648
7338.330571	1.158344	0.191981	507.354462
7338.331464	0.705432	0.191981	1137.305298
7338.332435	0.086843	0.191981	1221.630127
7338.333369	0.084833	0.191981	1300.863892
7338.334272	0.084869	0.191981	1377.500977
7338.335196	0.084811	0.191981	1455.866211
7338.336136	0.084803	0.191981	1535.581421
7338.337044	0.084807	0.191981	1612.586304
7338.337945	0.084840	0.191981	1689.027222
7338.338877	0.084811	0.191981	1768.070923
7338.339807	0.084906	0.191981	1847.033447
7338.340721	0.084818	0.191981	1924.557251
7339.364845	1.196583	0.204766	555.214661
7339.365750	0.650687	0.204766	1144.086670
7339.366637	0.087396	0.204766	1221.607178
7339.367602	0.084833	0.204766	1303.470825
7339.368504	0.084800	0.204766	1379.960205
7339.369425	0.084858	0.204766	1458.114746
7339.370321	0.084924	0.204766	1534.206909
7339.371271	0.084818	0.204766	1614.784180
7339.372175	0.084818	0.204766	1691.459717
7339.373070	0.084899	0.204766	1767.444092
7339.373996	0.084946	0.204766	1846.104370
7339.374913	0.084760	0.204766	1923.828857
7340.394969	1.162555	0.209214	518.499451
7340.395861	0.687319	0.209214	1131.588379
7340.396810	0.086722	0.209214	1213.887939
7340.397726	0.084844	0.209214	1291.604858
7340.398628	0.084880	0.209214	1368.166992
7340.399558	0.084983	0.209214	1447.201050
7340.400473	0.085005	0.209214	1524.980469
7340.401376	0.084880	0.209214	1601.627441
7340.402271	0.084880	0.209214	1677.595337
7340.403213	0.084928	0.209214	1757.597534
7340.404118	0.084924	0.209214	1834.454102
7340.405013	0.084836	0.209214	1910.382690
7341.434824	1.153773	0.199860	500.737549
7341.435774	0.628447	0.199860	1097.762451
7341.436730	0.086356	0.199860	1180.318970
7341.437650	0.084877	0.199860	1258.405518
7341.438535	0.084781	0.199860	1333.437134
7341.439467	0.084836	0.199860	1412.504639
7341.440404	0.084807	0.199860	1491.968872
7341.441306	0.084877	0.199860	1568.527710
7341.442233	0.084858	0.199860	1647.191406
7341.443175	0.084935	0.199860	1727.200439
7341.444087	0.084873	0.199860	1804.604614
7341.444978	0.084954	0.199860	1880.298340
7342.457825	1.188940	0.200142	535.023193
7342.458744	0.647322	0.200142	1129.911865
7342.459638	0.087220	0.200142	1207.886963
7342.460549	0.084803	0.200142	1285.142944
7342.461492	0.084811	0.200142	1365.119507
7342.462420	0.084873	0.200142	1443.881714
7342.463312	0.084840	0.200142	1519.559082
7342.464266	0.084814	0.200142	1600.472046
7342.465183	0.084855	0.200142	1678.283813
7342.466109	0.084829	0.200142	1756.835571
7342.466999	0.084833	0.200142	1832.336670
7342.467941	0.084844	0.200142	1912.259521
7343.507936	1.174523	0.203832	532.058838
7343.508842	0.666552	0.203832	1135.954590
7343.509733	0.087711	0.203832	1214.105225
7343.510691	0.084899	0.203832	1295.438110
7343.511583	0.084818	0.203832	1371.095825
7343.512473	0.084888	0.203832	1446.645874
7343.513394	0.084928	0.203832	1524.864502
7343.514324	0.084847	0.203832	1603.772583
7343.515227	0.084840	0.203832	1680.383179
7343.516118	0.084862	0.203832	1755.995239
7343.517057	0.084833	0.203832	1835.653198
7343.517977	0.084840	0.203832	1913.706055
7344.524749	1.157278	0.214209	503.415863
7344.525650	0.691326	0.214209	1126.300293
7344.526612	0.086708	0.214209	1209.713135
7344.527515	0.084855	0.214209	1286.336914
7344.528415	0.084928	0.214209	1362.772095
7344.529351	0.084976	0.214209	1442.309204
7344.530249	0.084950	0.214209	1518.594238
7344.531147	0.084932	0.214209	1594.862793
7344.532033	0.084866	0.214209	1670.053833
7344.532971	0.084921	0.214209	1749.709351
7344.533877	0.084877	0.214209	1826.607666
7344.534779	0.084932	0.214209	1903.216064
7345.575920	1.184059	0.192895	552.955444
7345.576840	0.631739	0.192895	1134.155762
7345.577727	0.087037	0.192895	1211.357910
7345.578678	0.084847	0.192895	1292.047852
7345.579618	0.084840	0.192895	1371.797485
7345.580518	0.084825	0.192895	1448.140381
7345.581438	0.084807	0.192895	1526.162964
7345.582379	0.084851	0.192895	1606.007812
7345.583301	0.084847	0.192895	1684.237183
7345.584198	0.084825	0.192895	1760.325562
7345.585154	0.084836	0.192895	1841.429199
7345.586077	0.084855	0.192895	1919.750122
7346.591202	1.175815	0.217214	525.589539
7346.592102	0.677498	0.217214	1135.337402
7346.592993	0.087839	0.217214	1213.602295
7346.593941	0.084789	0.217214	1293.982056
7346.594850	0.084968	0.217214	1371.218262
7346.595778	0.084939	0.217214	1450.041626
7346.596668	0.084869	0.217214	1525.575439
7346.597613	0.084803	0.217214	1605.714722
7346.598539	0.084884	0.217214	1684.317383
7346.599433	0.084877	0.217214	1760.197144
7346.600376	0.084796	0.217214	1840.159912
7346.601294	0.084877	0.217214	1918.076782
7347.642357	1.198491	0.196363	574.077271
7347.643283	0.587069	0.196363	1117.703247
7347.644192	0.086521	0.196363	1196.350830
7347.645083	0.084855	0.196363	1271.956421
7347.646031	0.084972	0.196363	1352.509766
7347.646943	0.084814	0.196363	1429.860596
7347.647832	0.084932	0.196363	1505.364868
7347.648755	0.084880	0.196363	1583.709473
7347.649679	0.084994	0.196363	1662.243774
7347.650589	0.084943	0.196363	1739.541504
7347.651485	0.084939	0.196363	1815.646851
7347.652411	0.084972	0.196363	1894.330811
7348.663751	1.155608	0.216122	502.689453
7348.664694	0.638646	0.216122	1104.932861
7348.665636	0.086594	0.216122	1186.504639
7348.666556	0.084873	0.216122	1264.587891
7348.667448	0.084932	0.216122	1340.346924
7348.668399	0.084822	0.216122	1421.012451
7348.669335	0.084873	0.216122	1500.453613
7348.670226	0.084902	0.216122	1576.101562
7348.671143	0.084833	0.216122	1653.893188
7348.672075	0.084789	0.216122	1732.916382
7348.672990	0.084946	0.216122	1810.642212
7348.673887	0.084902	0.216122	1886.799561
7349.703647	1.181755	0.191441	531.789917
7349.704557	0.655983	0.191441	1128.734131
7349.705447	0.087495	0.191441	1206.604736
7349.706383	0.084822	0.191441	1285.997925
7349.707294	0.084862	0.191441	1363.307251
7349.708214	0.084895	0.191441	1441.410645
7349.709100	0.084855	0.191441	1516.591919
7349.710036	0.084917	0.191441	1596.074219
7349.710939	0.084906	0.191441	1672.744385
7349.711832	0.084851	0.191441	1748.516357
7349.712738	0.084862	0.191441	1825.401367
7349.713671	0.084913	0.191441	1904.625488
7350.736849	1.165188	0.215011	518.508667
7350.737749	0.690066	0.215011	1139.567993
7350.738690	0.087920	0.215011	1222.300659
7350.739601	0.084983	0.215011	1299.720093
7350.740503	0.084902	0.215011	1376.302002
7350.741390	0.084888	0.215011	1451.597412
7350.742321	0.084928	0.215011	1530.665405
7350.743224	0.084935	0.215011	1607.361938
7350.744131	0.084895	0.215011	1684.361694
7350.745025	0.084913	0.215011	1760.274170
7350.745965	0.084990	0.215011	1840.165039
7350.746877	0.084891	0.215011	1917.585937
7351.768058	1.221229	0.196484	584.968872
7351.768968	0.610115	0.196484	1140.173340
7351.769860	0.086927	0.196484	1217.712646
7351.770811	0.084844	0.196484	1298.399048
7351.771740	0.084855	0.196484	1377.229126
7351.772641	0.084935	0.196484	1453.755859
7351.773558	0.084807	0.196484	1531.524048
7351.774498	0.084877	0.196484	1611.308105
7351.775415	0.084928	0.196484	1689.187012
7351.776304	0.084932	0.196484	1764.691284
7351.777256	0.084888	0.196484	1845.504395
7351.778188	0.084844	0.196484	1924.578735
7352.811466	1.166440	0.216751	509.734497
7352.812415	0.622269	0.216751	1100.268066
7352.813334	0.086686	0.216751	1179.932373
7352.814232	0.084869	0.216751	1256.145020
7352.815156	0.084939	0.216751	1334.628662
7352.816061	0.084961	0.216751	1411.518311
7352.816969	0.084858	0.216751	1488.569702
7352.817859	0.084917	0.216751	1564.145874
7352.818784	0.084994	0.216751	1642.765259
7352.819687	0.084954	0.216751	1719.478394
7352.820579	0.084884	0.216751	1795.194946
7352.821468	0.084943	0.216751	1870.708984
7353.824755	1.193738	0.194301	562.250488
7353.825669	0.620530	0.194301	1129.414673
7353.826561	0.087001	0.194301	1207.019287
7353.827519	0.084796	0.194301	1288.254028
7353.828455	0.084855	0.194301	1367.678101
7353.829352	0.084932	0.194301	1443.861816
7353.830269	0.084847	0.194301	1521.666870
7353.831203	0.084877	0.194301	1600.941772
7353.832123	0.084891	0.194301	1679.041870
7353.833018	0.084888	0.194301	1755.016357
7353.833951	0.084818	0.194301	1834.151611
7353.834886	0.084935	0.194301	1913.566162
7354.887129	1.170901	0.211365	529.247192
7354.888033	0.669895	0.211365	1134.832275
7354.888968	0.087700	0.211365	1216.831909
7354.889881	0.084803	0.211365	1294.257446
7354.890776	0.084811	0.211365	1370.163086
7354.891663	0.084877	0.211365	1445.448730
7354.892602	0.084968	0.211365	1525.233887
7354.893507	0.084884	0.211365	1602.053955
7354.894418	0.084829	0.211365	1679.333252
7354.895311	0.084902	0.211365	1755.151001
7354.896262	0.084954	0.211365	1835.941895
7354.897163	0.084840	0.211365	1912.382812
7355.890676	1.222606	0.206063	584.405823
7355.891617	0.557908	0.206063	1109.396973
7355.892538	0.085983	0.206063	1188.587036
7355.893431	0.084745	0.206063	1264.264160
7355.894374	0.084891	0.206063	1344.316650
7355.895307	0.084869	0.206063	1423.499756
7355.896206	0.084829	0.206063	1499.761108
7355.897130	0.084935	0.206063	1578.241333
7355.898074	0.084840	0.206063	1658.330322
7355.898983	0.084917	0.206063	1735.519897
7355.899882	0.084807	0.206063	1811.761475
7355.900823	0.084844	0.206063	1891.599487
7356.957164	1.183352	0.200412	553.808716
7356.958075	0.639302	0.200412	1136.212646
7356.959023	0.087103	0.200412	1218.786499
7356.959934	0.084858	0.200412	1296.092529
7356.960855	0.084928	0.200412	1374.311157
7356.961744	0.084888	0.200412	1449.776367
7356.962683	0.084862	0.200412	1529.461792
7356.963588	0.084902	0.200412	1606.298462
7356.964507	0.084928	0.200412	1684.347290
7356.965405	0.084884	0.200412	1760.573120
7356.966353	0.084840	0.200412	1841.001465
7356.967258	0.084866	0.200412	1917.804932
7357.952976	1.165602	0.203691	515.195984
7357.953907	0.669968	0.203691	1138.936401
7357.954852	0.086495	0.203691	1220.674561
7357.955776	0.084771	0.203691	1299.002563
7357.956675	0.084880	0.203691	1375.310059
7357.957620	0.084924	0.203691	1455.563477
7357.958543	0.084822	0.203691	1533.854004
7357.959452	0.084844	0.203691	1610.976929
7357.960356	0.084855	0.203691	1687.685547
7357.961289	0.084844	0.203691	1766.844727
7357.962229	0.084888	0.203691	1846.639160
7357.963120	0.084899	0.203691	1922.283936
7359.028170	1.166569	0.204392	510.957001
7359.029135	0.634523	0.204392	1123.271484
7359.030041	0.086514	0.204392	1201.652832
7359.030970	0.084836	0.204392	1280.465820
7359.031860	0.084902	0.204392	1356.028931
7359.032822	0.084847	0.204392	1437.652100
7359.033720	0.084862	0.204392	1513.858276
7359.034632	0.084877	0.204392	1591.265869
7359.035529	0.084803	0.204392	1667.334595
7359.036480	0.084836	0.204392	1748.014038
7359.037406	0.084884	0.204392	1826.616699
7359.038298	0.084800	0.204392	1902.258179
7360.019914	1.156289	0.212497	502.985718
7360.020842	0.684100	0.212497	1137.830811
7360.021779	0.086704	0.212497	1219.072510
7360.022687	0.084895	0.212497	1296.157227
7360.023582	0.084906	0.212497	1372.148071
7360.024509	0.084913	0.212497	1450.862793
7360.025409	0.084935	0.212497	1527.304565
7360.026304	0.084888	0.212497	1603.279053
7360.027192	0.084891	0.212497	1678.662598
7360.028139	0.084935	0.212497	1759.096313
7360.029036	0.084965	0.212497	1835.309570
7360.029934	0.084939	0.212497	1911.584717
7361.095626	1.168546	0.198958	510.654633
7361.096597	0.595990	0.198958	1089.360962
7361.097527	0.086027	0.198958	1169.365723
7361.098426	0.084899	0.198958	1245.689697
7361.099345	0.084939	0.198958	1323.748657
7361.100288	0.084862	0.198958	1403.773560
7361.101206	0.084902	0.198958	1481.713867
7361.102095	0.084884	0.198958	1557.175781
7361.103040	0.084902	0.198958	1637.408447
7361.103977	0.084851	0.198958	1716.913940
7361.104877	0.084913	0.198958	1793.335937
7361.105796	0.084866	0.198958	1871.327515
7362.088420	1.197319	0.209270	544.780334
7362.089325	0.662633	0.209270	1144.463257
7362.090212	0.087627	0.209270	1222.188354
7362.091160	0.084921	0.209270	1302.693115
7362.092059	0.084873	0.209270	1378.994019
7362.092955	0.084847	0.209270	1455.017334
7362.093849	0.084928	0.209270	1530.942993
7362.094807	0.084921	0.209270	1612.296997
7362.095716	0.084807	0.209270	1689.386719
7362.096615	0.084891	0.209270	1765.704102
7362.097547	0.084910	0.209270	1844.839966
7362.098451	0.084943	0.209270	1921.628052
7363.163606	1.184462	0.198656	531.823303
7363.164549	0.604036	0.198656	1101.428955
7363.165437	0.086832	0.198656	1178.536011
7363.166397	0.084833	0.198656	1259.975464
7363.167328	0.084829	0.198656	1338.951416
7363.168226	0.084928	0.198656	1415.216797
7363.169149	0.084910	0.198656	1493.588379
7363.170087	0.084858	0.198656	1573.185547
7363.171014	0.084957	0.198656	1651.940918
7363.171908	0.084884	0.198656	1727.827271
7363.172820	0.084910	0.198656	1805.264893
7363.173757	0.084906	0.198656	1884.821777
7364.157381	1.166210	0.216223	509.633636
7364.158356	0.589431	0.216223	1084.328979
7364.159250	0.086660	0.216223	1161.803101
7364.160139	0.084814	0.216223	1237.203125
7364.161080	0.084957	0.216223	1317.147949
7364.161987	0.084906	0.216223	1394.157715
7364.162890	0.084888	0.216223	1470.811279
7364.163784	0.084847	0.216223	1546.664917
7364.164714	0.084939	0.216223	1625.658203
7364.165626	0.084792	0.216223	1702.988892
7364.166528	0.084921	0.216223	1779.587280
7364.167414	0.084902	0.216223	1854.810791
7365.228486	1.153275	0.198579	500.521393
7365.229385	0.707816	0.198579	1136.848145
7365.230363	0.086898	0.198579	1221.834595
7365.231298	0.084858	0.198579	1301.177246
7365.232208	0.084877	0.198579	1378.415039
7365.233117	0.084884	0.198579	1455.574585
7365.234051	0.084866	0.198579	1534.839111
7365.234993	0.084833	0.198579	1614.751587
7365.235886	0.084840	0.198579	1690.513794
7365.236805	0.084877	0.198579	1768.515503
7365.237740	0.084891	0.198579	1847.888916
7365.238658	0.084884	0.198579	1925.812500
7366.223311	1.166177	0.215292	513.117798
7366.224205	0.688909	0.215292	1129.002197
7366.225193	0.086473	0.215292	1214.437866
7366.226087	0.084847	0.215292	1290.291504
7366.226974	0.084855	0.215292	1365.557617
7366.227914	0.084906	0.215292	1445.369263
7366.228822	0.084884	0.215292	1522.443970
7366.229749	0.084866	0.215292	1601.114502
7366.230640	0.084954	0.215292	1676.808228
7366.231605	0.084983	0.215292	1758.816772
7366.232512	0.084774	0.215292	1835.706909
7366.233429	0.084917	0.215292	1913.575806
7367.298520	1.176764	0.195985	530.720520
7367.299422	0.671162	0.195985	1136.108765
7367.300359	0.087572	0.195985	1218.163696
7367.301264	0.084891	0.195985	1294.990356
7367.302169	0.084866	0.195985	1371.793823
7367.303061	0.084873	0.195985	1447.500610
7367.304022	0.084979	0.195985	1529.165649
7367.304924	0.084906	0.195985	1605.750854
7367.305818	0.084921	0.195985	1681.669922
7367.306714	0.084950	0.195985	1757.785034
7367.307654	0.084910	0.195985	1837.600098
7367.308569	0.084884	0.195985	1915.269043
7368.292832	1.175446	0.211941	526.599609
7368.293733	0.678486	0.211941	1137.915771
7368.294620	0.087935	0.211941	1215.913696
7368.295591	0.084844	0.211941	1298.296997
7368.296526	0.084836	0.211941	1377.619019
7368.297429	0.084957	0.211941	1454.335449
7368.298341	0.084844	0.211941	1531.712891
7368.299274	0.084800	0.211941	1610.831055
7368.300186	0.084840	0.211941	1688.205200
7368.301102	0.084902	0.211941	1765.975708
7368.301999	0.084906	0.211941	1842.136353
7368.302952	0.084851	0.211941	1922.999390
7369.365467	1.172717	0.200356	528.895447
7369.366368	0.675190	0.200356	1137.241943
7369.367301	0.087535	0.200356	1218.912476
7369.368204	0.084935	0.200356	1295.609009
7369.369103	0.084858	0.200356	1371.896729
7369.369991	0.084825	0.200356	1447.221680
7369.370927	0.084906	0.200356	1526.693726
7369.371838	0.084910	0.200356	1604.046387
7369.372742	0.084884	0.200356	1680.781494
7369.373631	0.084847	0.200356	1756.210815
7369.374567	0.084928	0.200356	1835.703369
7369.375473	0.084866	0.200356	1912.591675
7370.359289	1.191310	0.216638	581.359192
7370.360256	0.551298	0.216638	1114.463989
7370.361166	0.085642	0.216638	1192.398315
7370.362065	0.084844	0.216638	1268.672852
7370.362999	0.084781	0.216638	1347.858765
7370.363935	0.084818	0.216638	1427.248535
7370.364835	0.084866	0.216638	1503.627686
7370.365751	0.084840	0.216638	1581.341187
7370.366685	0.084866	0.216638	1660.605713
7370.367611	0.084877	0.216638	1739.201538
7370.368503	0.084884	0.216638	1814.918091
7370.369436	0.084833	0.216638	1894.067017
7371.433945	1.170018	0.195840	524.168213
7371.434842	0.672118	0.195840	1127.057983
7371.435802	0.086583	0.195840	1210.177856
7371.436720	0.084796	0.195840	1288.020752
7371.437610	0.084917	0.195840	1363.596924
7371.438528	0.084873	0.195840	1441.510376
7371.439459	0.084851	0.195840	1520.506714
7371.440377	0.084891	0.195840	1598.437012
7371.441271	0.084862	0.195840	1674.303711
7371.442209	0.084847	0.195840	1753.890625
7371.443142	0.084792	0.195840	1833.001953
7371.444034	0.084888	0.195840	1908.721802
7372.425676	1.159171	0.210201	507.716949
7372.426571	0.687836	0.210201	1123.329834
7372.427547	0.086547	0.210201	1207.799316
7372.428446	0.084836	0.210201	1284.067261
7372.429340	0.084884	0.210201	1359.953613
7372.430284	0.084836	0.210201	1440.039185
7372.431184	0.084803	0.210201	1516.362305
7372.432093	0.084785	0.210201	1593.432007
7372.432987	0.084972	0.210201	1669.396851
7372.433918	0.084888	0.210201	1748.427246
7372.434833	0.084803	0.210201	1826.022461
7372.435741	0.084884	0.210201	1903.097168
7373.503455	1.184084	0.201983	529.285706
7373.504386	0.633706	0.201983	1119.266113
7373.505274	0.087166	0.201983	1196.669067
7373.506199	0.084954	0.201983	1275.251221
7373.507115	0.084935	0.201983	1353.052002
7373.508019	0.084781	0.201983	1429.694458
7373.508914	0.084803	0.201983	1505.593506
7373.509847	0.084921	0.201983	1584.824463
7373.510752	0.084869	0.201983	1661.631226
7373.511654	0.084836	0.201983	1738.153687
7373.512543	0.084851	0.201983	1813.586304
7373.513482	0.084983	0.201983	1893.385254
7374.494688	1.190830	0.209238	540.636841
7374.495637	0.597675	0.209238	1107.830078
7374.496558	0.086290	0.209238	1187.303467
7374.497457	0.084785	0.209238	1263.525269
7374.498410	0.084745	0.209238	1344.287109
7374.499322	0.084741	0.209238	1421.571045
7374.500208	0.084792	0.209238	1496.697144
7374.501145	0.084734	0.209238	1576.092773
7374.502064	0.084807	0.209238	1654.030518
7374.502988	0.084833	0.209238	1732.416016
7374.503880	0.084800	0.209238	1808.057495
7374.504825	0.084774	0.209238	1888.169067
7375.567826	1.172124	0.208174	523.939453
7375.568728	0.687220	0.208174	1143.812256
7375.569614	0.088019	0.208174	1221.796875
7375.570567	0.084866	0.208174	1302.673950
7375.571476	0.084800	0.208174	1379.756958
7375.572371	0.084891	0.208174	1455.734741
7375.573321	0.084957	0.208174	1536.444092
7375.574223	0.084858	0.208174	1612.986328
7375.575115	0.084858	0.208174	1688.680054
7375.576008	0.084847	0.208174	1764.448730
7375.576942	0.084906	0.208174	1843.750977
7375.577852	0.084855	0.208174	1920.968750
7376.565746	1.181598	0.204642	555.351013
7376.566665	0.625613	0.204642	1130.289185
7376.567593	0.086459	0.204642	1210.522949
7376.568482	0.084829	0.204642	1285.936035
7376.569436	0.085005	0.204642	1367.030640
7376.570329	0.084921	0.204642	1442.864746
7376.571230	0.084792	0.204642	1519.262817
7376.572125	0.084858	0.204642	1595.211060
7376.573050	0.084888	0.204642	1673.732178
7376.573954	0.084858	0.204642	1750.444214
7376.574857	0.084792	0.204642	1827.011841
7376.575745	0.084851	0.204642	1902.359619
7377.631213	1.194122	0.209331	554.072754
7377.632153	0.608361	0.209331	1125.931641
7377.633086	0.086213	0.209331	1206.368774
7377.633975	0.084818	0.209331	1281.772095
7377.634909	0.084899	0.209331	1361.067505
7377.635833	0.084818	0.209331	1439.439453
7377.636746	0.084899	0.209331	1516.951904
7377.637636	0.084847	0.209331	1592.466064
7377.638594	0.084825	0.209331	1673.728882
7377.639533	0.084862	0.209331	1753.414307
7377.640430	0.084807	0.209331	1829.486328
7377.641357	0.084862	0.209331	1908.153442
7378.636766	1.184949	0.196472	534.411865
7378.637674	0.666321	0.196472	1139.431152
7378.638570	0.087462	0.196472	1217.797241
7378.639507	0.084891	0.196472	1297.340454
7378.640414	0.084858	0.196472	1374.307007
7378.641325	0.084873	0.196472	1451.626343
7378.642244	0.084814	0.196472	1529.570801
7378.643135	0.084818	0.196472	1605.143799
7378.644095	0.084866	0.196472	1686.614868
7378.644993	0.084814	0.196472	1762.778198
7378.645879	0.084866	0.196472	1837.969238
7378.646828	0.084976	0.196472	1918.611084
7379.694033	1.174204	0.218745	523.695007
7379.694933	0.684961	0.218745	1140.159790
7379.695877	0.087631	0.218745	1222.883057
7379.696790	0.084895	0.218745	1300.392212
7379.697695	0.084811	0.218745	1377.145996
7379.698582	0.084851	0.218745	1452.408936
7379.699534	0.084921	0.218745	1533.253418
7379.700437	0.084825	0.218745	1609.850830
7379.701334	0.084946	0.218745	1686.047607
7379.702270	0.084884	0.218745	1765.499023
7379.703178	0.084935	0.218745	1842.620239
7379.704088	0.084880	0.218745	1919.861328
7380.711923	1.185674	0.198100	559.638062
7380.712832	0.626587	0.198100	1129.205566
7380.713719	0.087107	0.198100	1206.469482
7380.714677	0.084767	0.198100	1287.676147
7380.715623	0.084800	0.198100	1367.896729
7380.716515	0.084877	0.198100	1443.606689
7380.717427	0.084869	0.198100	1521.007568
7380.718355	0.084796	0.198100	1599.698364
7380.719286	0.084855	0.198100	1678.698120
7380.720185	0.084913	0.198100	1755.035156
7380.721106	0.084877	0.198100	1833.206543
7380.722048	0.084811	0.198100	1913.098267
7381.753818	1.179280	0.219434	528.317322
7381.754728	0.657543	0.219434	1126.681152
7381.755619	0.087499	0.219434	1204.642578
7381.756563	0.084829	0.219434	1284.721191
7381.757480	0.084796	0.219434	1362.479248
7381.758404	0.084796	0.219434	1440.830933
7381.759295	0.084833	0.219434	1516.416870
7381.760243	0.084866	0.219434	1596.869629
7381.761140	0.084877	0.219434	1673.004028
7381.762028	0.084858	0.219434	1748.358276
7381.762953	0.084895	0.219434	1826.886108
7381.763875	0.084873	0.219434	1905.139038
7382.787536	1.163434	0.192569	513.074280
7382.788433	0.680706	0.192569	1123.667236
7382.789393	0.086631	0.192569	1206.832886
7382.790304	0.084862	0.192569	1284.142212
7382.791203	0.084906	0.192569	1360.472656
7382.792133	0.084968	0.192569	1439.493164
7382.793035	0.084884	0.192569	1516.058594
7382.793932	0.084976	0.192569	1592.281738
7382.794818	0.084899	0.192569	1667.501953
7382.795759	0.084979	0.192569	1747.467407
7382.796649	0.084895	0.192569	1823.023926
7382.797554	0.084921	0.192569	1899.877075
7383.816141	1.159775	0.219853	510.301178
7383.817035	0.701400	0.219853	1137.352905
7383.817990	0.087184	0.219853	1220.613525
7383.818926	0.084792	0.219853	1299.979248
7383.819825	0.084899	0.219853	1376.303223
7383.820741	0.084895	0.219853	1454.067017
7383.821664	0.084866	0.219853	1532.398071
7383.822609	0.084866	0.219853	1612.596191
7383.823511	0.084895	0.219853	1689.171509
7383.824432	0.084858	0.219853	1767.326050
7383.825365	0.084814	0.219853	1846.457886
7383.826286	0.084862	0.219853	1924.615845
7384.859084	1.176643	0.194200	520.076233
7384.860077	0.545793	0.194200	1062.049072
7384.860975	0.086173	0.194200	1139.432495
7384.861867	0.084851	0.194200	1215.119629
7384.862817	0.084818	0.194200	1295.696777
7384.863720	0.084814	0.194200	1372.284180
7384.864638	0.084855	0.194200	1450.180786
7384.865534	0.084873	0.194200	1526.227051
7384.866463	0.084877	0.194200	1605.077515
7384.867378	0.084833	0.194200	1682.699463
7384.868300	0.084877	0.194200	1760.955811
7384.869191	0.084847	0.194200	1836.554810
7385.879514	1.183074	0.221440	531.200134
7385.880424	0.662102	0.221440	1133.713013
7385.881312	0.087675	0.221440	1211.567993
7385.882263	0.084910	0.221440	1292.317139
7385.883171	0.084851	0.221440	1369.361938
7385.884059	0.084862	0.221440	1444.719482
7385.884981	0.084866	0.221440	1522.965698
7385.885899	0.084957	0.221440	1600.956543
7385.886806	0.084888	0.221440	1677.949707
7385.887705	0.084825	0.221440	1754.207764
7385.888634	0.084921	0.221440	1833.098999
7385.889537	0.084928	0.221440	1909.788940
7386.930670	1.183839	0.196021	551.669006
7386.931606	0.600234	0.196021	1113.488403
7386.932503	0.086536	0.196021	1191.110840
7386.933425	0.084855	0.196021	1269.346924
7386.934364	0.084844	0.196021	1349.015259
7386.935284	0.084778	0.196021	1427.010864
7386.936193	0.084913	0.196021	1504.197144
7386.937103	0.084858	0.196021	1581.418335
7386.938031	0.084924	0.196021	1660.228149
7386.938979	0.084833	0.196021	1740.649658
7386.939873	0.084811	0.196021	1816.470459
7386.940795	0.084869	0.196021	1894.719971
7387.944902	1.156055	0.217375	502.883820
7387.945856	0.644293	0.217375	1117.539551
7387.946764	0.086635	0.217375	1196.203735
7387.947696	0.084913	0.217375	1275.343018
7387.948586	0.084811	0.217375	1350.824585
7387.949536	0.084858	0.217375	1431.440063
7387.950438	0.084880	0.217375	1508.002197
7387.951328	0.084943	0.217375	1583.601074
7387.952234	0.084939	0.217375	1660.555786
7387.953167	0.084840	0.217375	1739.711548
7387.954063	0.084869	0.217375	1815.754517
7387.954957	0.084873	0.217375	1891.630981
7388.997576	1.160713	0.200915	509.552948
7388.998536	0.597938	0.200915	1083.573608
7388.999442	0.086506	0.200915	1161.948364
7389.000343	0.084803	0.200915	1238.356323
7389.001248	0.084873	0.200915	1315.166382
7389.002173	0.084943	0.200915	1393.738281
7389.003084	0.084862	0.200915	1471.047607
7389.003978	0.084899	0.200915	1546.947021
7389.004912	0.084928	0.200915	1626.269775
7389.005815	0.084902	0.200915	1702.936646
7389.006715	0.084873	0.200915	1779.322388
7389.007606	0.084913	0.200915	1854.980225
7390.013423	1.179818	0.213597	559.233826
7390.014367	0.589845	0.213597	1116.047363
7390.015286	0.086118	0.213597	1195.189941
7390.016175	0.084888	0.213597	1270.655151
7390.017100	0.084895	0.213597	1349.182983
7390.018037	0.084910	0.213597	1428.743408
7390.018958	0.084888	0.213597	1506.924927
7390.019849	0.084928	0.213597	1582.595703
7390.020803	0.084880	0.213597	1663.571533
7390.021747	0.084935	0.213597	1743.750488
7390.022646	0.084866	0.213597	1820.044800
7390.023560	0.084877	0.213597	1897.622070
7391.064519	1.158688	0.202583	506.346527
7391.065415	0.697474	0.202583	1131.283569
7391.066390	0.086459	0.202583	1215.580811
7391.067315	0.084836	0.202583	1294.054443
7391.068213	0.084906	0.202583	1370.300049
7391.069134	0.084796	0.202583	1448.397339
7391.070072	0.084877	0.202583	1528.011719
7391.070991	0.084844	0.202583	1605.983154
7391.071882	0.084851	0.202583	1681.585449
7391.072836	0.084902	0.202583	1762.582275
7391.073732	0.084840	0.202583	1838.598999
7391.074651	0.084880	0.202583	1916.604004
7392.083912	1.152019	0.211578	499.976257
7392.084860	0.676644	0.211578	1141.435059
7392.085773	0.086664	0.211578	1220.559082
7392.086684	0.084833	0.211578	1297.841675
7392.087578	0.084847	0.211578	1373.695312
7392.088537	0.084994	0.211578	1455.204468
7392.089447	0.084884	0.211578	1532.448975
7392.090350	0.084836	0.211578	1609.056274
7392.091241	0.084917	0.211578	1684.717285
7392.092169	0.084844	0.211578	1763.452271
7392.093075	0.084785	0.211578	1840.267578
7392.093965	0.084792	0.211578	1915.732910
7393.129437	1.180605	0.207329	528.911255
7393.130339	0.671774	0.207329	1134.851074
7393.131278	0.087026	0.207329	1216.568848
7393.132176	0.084917	0.207329	1292.824341
7393.133074	0.084884	0.207329	1369.050171
7393.133962	0.084932	0.207329	1444.469482
7393.134900	0.084906	0.207329	1524.111328
7393.135803	0.084924	0.207329	1600.797974
7393.136701	0.084833	0.207329	1676.977783
7393.137630	0.084961	0.207329	1755.906494
7393.138537	0.084987	0.207329	1832.989258
7393.139445	0.084880	0.207329	1910.060669
7394.153965	1.187732	0.205886	552.295288
7394.154875	0.636379	0.205886	1131.400635
7394.155767	0.087195	0.205886	1209.178467
7394.156728	0.084822	0.205886	1290.692139
7394.157664	0.084902	0.205886	1370.160767
7394.158562	0.084939	0.205886	1446.435913
7394.159492	0.084862	0.205886	1525.357666
7394.160428	0.084884	0.205886	1604.809082
7394.161343	0.084906	0.205886	1682.498047
7394.162231	0.084836	0.205886	1757.832764
7394.163163	0.084899	0.205886	1836.958374
7394.164110	0.084895	0.205886	1917.354004
7395.194317	1.167565	0.211691	517.231201
7395.195213	0.674630	0.211691	1121.699707
7395.196204	0.086162	0.211691	1207.086304
7395.197128	0.084873	0.211691	1285.509033
7395.198016	0.084880	0.211691	1360.882812
7395.198964	0.084829	0.211691	1441.300781
7395.199886	0.084851	0.211691	1519.533447
7395.200799	0.084803	0.211691	1596.958984
7395.201687	0.084847	0.211691	1672.303467
7395.202619	0.084873	0.211691	1751.405151
7395.203543	0.084858	0.211691	1829.814331
7395.204438	0.084979	0.211691	1905.870728
7396.224510	1.187794	0.208714	583.206970
7396.225436	0.579093	0.208714	1119.447021
7396.226328	0.086459	0.208714	1196.568237
7396.227213	0.084877	0.208714	1271.684082
7396.228155	0.084954	0.208714	1351.710449
7396.229070	0.084855	0.208714	1429.352539
7396.229975	0.084869	0.208714	1506.159302
7396.230863	0.084814	0.208714	1581.474487
7396.231814	0.084921	0.208714	1662.234009
7396.232718	0.084847	0.208714	1738.936035
7396.233611	0.084939	0.208714	1814.786499
7396.234549	0.084968	0.208714	1894.486694
7397.259213	1.156776	0.212058	507.824738
7397.260107	0.704260	0.212058	1137.433350
7397.261065	0.086891	0.212058	1220.674805
7397.261967	0.084847	0.212058	1297.207153
7397.262862	0.084833	0.212058	1373.132446
7397.263769	0.084976	0.212058	1450.205322
7397.264681	0.084877	0.212058	1527.612915
7397.265592	0.084800	0.212058	1604.865479
7397.266492	0.084913	0.212058	1681.287476
7397.267414	0.084913	0.212058	1759.577515
7397.268317	0.084880	0.212058	1836.224487
7397.269228	0.084902	0.212058	1913.570557
7398.294983	1.154022	0.202652	499.691620
7398.295920	0.684807	0.202652	1141.355835
7398.296868	0.086492	0.202652	1223.349976
7398.297798	0.084873	0.202652	1302.281860
7398.298696	0.084840	0.202652	1378.468262
7398.299634	0.084840	0.202652	1458.048218
7398.300567	0.084811	0.202652	1537.176636
7398.301484	0.084891	0.202652	1615.021973
7398.302370	0.084836	0.202652	1690.187012
7398.303318	0.084847	0.202652	1770.622314
7398.304241	0.084818	0.202652	1848.909424
7398.305140	0.084913	0.202652	1925.246460
7399.325179	1.201505	0.213887	586.334473
7399.326108	0.582469	0.213887	1127.448608
7399.327030	0.086107	0.213887	1206.839478
7399.327918	0.084811	0.213887	1282.151489
7399.328861	0.084858	0.213887	1362.172974
7399.329781	0.084858	0.213887	1440.242676
7399.330669	0.084891	0.213887	1515.626221
7399.331581	0.084928	0.213887	1593.080566
7399.332526	0.084884	0.213887	1673.296021
7399.333447	0.084847	0.213887	1751.440430
7399.334339	0.084888	0.213887	1827.160278
7399.335273	0.084924	0.213887	1906.479614
7400.363468	1.160596	0.203626	511.822723
7400.364446	0.580920	0.203626	1079.962891
7400.365361	0.086349	0.203626	1158.972168
7400.366259	0.084858	0.203626	1235.175049
7400.367148	0.084888	0.203626	1310.640259
7400.368097	0.084939	0.203626	1391.247314
7400.368996	0.084840	0.203626	1467.518555
7400.369891	0.084888	0.203626	1543.493042
7400.370818	0.084924	0.203626	1622.217896
7400.371725	0.084924	0.203626	1699.244263
7400.372624	0.084855	0.203626	1775.528687
7400.373512	0.084935	0.203626	1850.951294
7401.391570	1.169066	0.213000	522.572510
7401.392473	0.679025	0.213000	1135.731812
7401.393404	0.087865	0.213000	1217.534180
7401.394325	0.084833	0.213000	1295.665161
7401.395224	0.084756	0.213000	1371.860718
7401.396117	0.084840	0.213000	1447.622925
7401.397047	0.084862	0.213000	1526.544678
7401.397950	0.084877	0.213000	1603.188354
7401.398847	0.084877	0.213000	1679.322754
7401.399735	0.084825	0.213000	1754.647705
7401.400667	0.084906	0.213000	1833.780151
7401.401579	0.084814	0.213000	1911.130981
7402.432980	1.161841	0.203389	511.209961
7402.433890	0.683412	0.203389	1133.114746
7402.434778	0.087898	0.203389	1211.168091
7402.435733	0.084818	0.203389	1292.169434
7402.436664	0.084833	0.203389	1371.148682
7402.437559	0.084924	0.203389	1447.156006
7402.438484	0.084847	0.203389	1525.639893
7402.439415	0.084899	0.203389	1604.680542
7402.440338	0.084840	0.203389	1682.987915
7402.441238	0.084884	0.203389	1759.383545
7402.442157	0.084895	0.203389	1837.402100
7402.443097	0.084891	0.203389	1917.199951
7403.458026	1.174918	0.216513	538.112549
7403.458934	0.664570	0.216513	1141.542480
7403.459822	0.087517	0.216513	1219.257690
7403.460768	0.084924	0.216513	1299.596069
7403.461679	0.084829	0.216513	1376.875366
7403.462581	0.084877	0.216513	1453.434204
7403.463469	0.084913	0.216513	1528.837280
7403.464418	0.084899	0.216513	1609.406128
7403.465326	0.084829	0.216513	1686.430908
7403.466219	0.084858	0.216513	1762.209473
7403.467175	0.084943	0.216513	1843.414673
7403.468083	0.084910	0.216513	1920.512695
7404.499969	1.196261	0.203131	589.756714
7404.500885	0.590665	0.203131	1130.806152
7404.501784	0.086689	0.203131	1208.739990
7404.502674	0.084880	0.203131	1284.283569
7404.503642	0.084961	0.203131	1366.525757
7404.504545	0.084851	0.203131	1443.146240
7404.505442	0.084862	0.203131	1519.267456
7404.506341	0.084877	0.203131	1595.571655
7404.507276	0.084950	0.203131	1674.999878
7404.508187	0.084825	0.203131	1752.275879
7404.509084	0.084873	0.203131	1828.406982
7404.510005	0.084935	0.203131	1906.632446
7405.528012	1.165869	0.215720	512.982422
7405.528988	0.610986	0.215720	1109.305054
7405.529899	0.086027	0.215720	1187.675293
7405.530800	0.084701	0.215720	1263.990845
7405.531718	0.084833	0.215720	1341.867310
7405.532665	0.084767	0.215720	1422.141479
7405.533589	0.084774	0.215720	1500.472778
7405.534483	0.084877	0.215720	1576.352539
7405.535434	0.084749	0.215720	1656.948364
7405.536365	0.084767	0.215720	1735.866333
7405.537270	0.084730	0.215720	1812.547241
7405.538183	0.084723	0.215720	1889.899292
7406.567425	1.222086	0.204972	601.266418
7406.568345	0.580353	0.204972	1135.190918
7406.569259	0.086100	0.204972	1213.886230
7406.570156	0.084767	0.204972	1289.922119
7406.571100	0.084818	0.204972	1369.990479
7406.572000	0.084719	0.204972	1446.237793
7406.572891	0.084760	0.204972	1521.758545
7406.573822	0.084763	0.204972	1600.673096
7406.574729	0.084664	0.204972	1677.463623
7406.575622	0.084723	0.204972	1753.121216
7406.576512	0.084796	0.204972	1828.589722
7406.577443	0.084774	0.204972	1907.514526
7407.595977	1.170996	0.214849	512.896301
7407.596942	0.597422	0.214849	1089.408447
7407.597853	0.086440	0.214849	1168.155640
7407.598753	0.084738	0.214849	1244.419434
7407.599642	0.084833	0.214849	1319.835815
7407.600601	0.084932	0.214849	1401.285278
7407.601510	0.084822	0.214849	1478.388306
7407.602401	0.084924	0.214849	1554.055908
7407.603329	0.084932	0.214849	1632.872437
7407.604233	0.084910	0.214849	1709.630737
7407.605138	0.084829	0.214849	1786.401123
7407.606024	0.084825	0.214849	1861.556396
7408.633842	1.195184	0.204509	560.541443
7408.634749	0.634259	0.204509	1135.814453
7408.635689	0.087041	0.204509	1217.633057
7408.636629	0.084836	0.204509	1297.379272
7408.637537	0.084862	0.204509	1374.434082
7408.638431	0.084818	0.204509	1450.261475
7408.639364	0.084796	0.204509	1529.376221
7408.640302	0.084825	0.204509	1608.942505
7408.641200	0.084888	0.204509	1685.171631
7408.642116	0.084803	0.204509	1762.851562
7408.643048	0.084913	0.204509	1841.990845
7408.643979	0.084906	0.204509	1921.038330
7409.666013	1.187172	0.215623	536.601562
7409.666919	0.662629	0.215623	1136.943848
7409.667829	0.087506	0.215623	1216.574463
7409.668774	0.084796	0.215623	1296.706787
7409.669713	0.084829	0.215623	1376.361328
7409.670612	0.084873	0.215623	1452.662231
7409.671531	0.084807	0.215623	1530.599976
7409.672462	0.084924	0.215623	1609.664551
7409.673379	0.084895	0.215623	1687.513306
7409.674271	0.084858	0.215623	1763.207031
7409.675208	0.084811	0.215623	1842.674805
7409.676137	0.084829	0.215623	1921.481079
7410.698704	1.158025	0.208823	510.688995
7410.699595	0.703568	0.208823	1137.568237
7410.700535	0.087015	0.208823	1219.362671
7410.701450	0.084785	0.208823	1296.941040
7410.702374	0.084862	0.208823	1375.353638
7410.703262	0.084833	0.208823	1450.685181
7410.704225	0.084847	0.208823	1532.393188
7410.705125	0.084910	0.208823	1608.811890
7410.706014	0.084796	0.208823	1684.195679
7410.706957	0.084968	0.208823	1764.320801
7410.707873	0.084800	0.208823	1841.997437
7410.708788	0.084851	0.208823	1919.636230
7411.736554	1.199454	0.211119	554.147888
7411.737487	0.607778	0.211119	1121.205078
7411.738380	0.086741	0.211119	1198.664551
7411.739324	0.084891	0.211119	1278.802002
7411.740223	0.084847	0.211119	1355.079834
7411.741117	0.084822	0.211119	1430.910522
7411.742007	0.084796	0.211119	1506.379028
7411.742940	0.084910	0.211119	1585.599731
7411.743859	0.084825	0.211119	1663.554321
7411.744759	0.084840	0.211119	1739.910400
7411.745668	0.084847	0.211119	1817.036743
7411.746592	0.084957	0.211119	1895.537231
7412.764674	1.203032	0.209459	597.906982
7412.765620	0.536550	0.209459	1105.483521
7412.766545	0.085638	0.209459	1184.699097
7412.767447	0.084778	0.209459	1261.168701
7412.768388	0.084840	0.209459	1341.003174
7412.769320	0.084855	0.209459	1420.087769
7412.770222	0.084899	0.209459	1496.666382
7412.771139	0.084833	0.209459	1574.458008
7412.772072	0.084825	0.209459	1653.600098
7412.773013	0.084917	0.209459	1733.506958
7412.773908	0.084844	0.209459	1809.442139
7412.774834	0.084873	0.209459	1888.034546
7413.806023	1.153370	0.211224	499.409363
7413.806961	0.672242	0.211224	1129.972656
7413.807877	0.086825	0.211224	1209.504272
7413.808791	0.084866	0.211224	1287.071533
7413.809687	0.084961	0.211224	1363.196533
7413.810642	0.084803	0.211224	1444.183838
7413.811563	0.084851	0.211224	1522.331665
7413.812456	0.084814	0.211224	1598.070923
7413.813407	0.084921	0.211224	1678.830444
7413.814309	0.084895	0.211224	1755.405762
7413.815224	0.084869	0.211224	1833.061279
7413.816122	0.084932	0.211224	1909.329834
7414.829068	1.230747	0.209899	623.988770
7414.829984	0.565920	0.209899	1142.371826
7414.830881	0.086371	0.209899	1219.846436
7414.831769	0.084833	0.209899	1295.177979
7414.832701	0.084994	0.209899	1374.392334
7414.833610	0.084829	0.209899	1451.501953
7414.834509	0.084844	0.209899	1527.776489
7414.835436	0.084880	0.209899	1606.460571
7414.836350	0.084902	0.209899	1684.061279
7414.837260	0.084840	0.209899	1761.265747
7414.838159	0.084851	0.209899	1837.546875
7414.839097	0.084946	0.209899	1917.226440
7415.876046	1.157402	0.207764	502.312653
7415.876947	0.695555	0.207764	1129.008057
7415.877913	0.086931	0.207764	1212.983521
7415.878829	0.084814	0.207764	1290.673584
7415.879761	0.084840	0.207764	1369.744507
7415.880654	0.084935	0.207764	1445.591797
7415.881605	0.084877	0.207764	1526.309570
7415.882529	0.084877	0.207764	1604.735596
7415.883446	0.084950	0.207764	1682.634644
7415.884344	0.084869	0.207764	1758.847412
7415.885278	0.084833	0.207764	1838.081177
7415.886211	0.084847	0.207764	1917.243774
7416.894943	1.185337	0.216279	545.254944
7416.895836	0.669166	0.216279	1142.820435
7416.896786	0.087385	0.216279	1225.836426
7416.897682	0.084851	0.216279	1301.863037
7416.898596	0.084829	0.216279	1379.396851
7416.899492	0.084847	0.216279	1455.420166
7416.900425	0.084899	0.216279	1534.630615
7416.901346	0.084880	0.216279	1612.805420
7416.902242	0.084913	0.216279	1688.887817
7416.903153	0.084891	0.216279	1766.223877
7416.904107	0.084866	0.216279	1847.185791
7416.905021	0.084866	0.216279	1924.753052
7417.946080	1.196741	0.201774	550.500732
7417.946991	0.650394	0.201774	1143.009888
7417.947923	0.086455	0.201774	1223.586060
7417.948825	0.084869	0.201774	1300.138184
7417.949756	0.084910	0.201774	1379.189087
7417.950653	0.084873	0.201774	1455.320190
7417.951543	0.084866	0.201774	1530.850708
7417.952482	0.084869	0.201774	1610.543091
7417.953387	0.084884	0.201774	1687.363159
7417.954286	0.084939	0.201774	1763.723267
7417.955176	0.084884	0.201774	1839.270020
7417.956129	0.084957	0.201774	1920.234253
7418.961387	1.176229	0.218402	552.827759
7418.962322	0.593309	0.218402	1107.572021
7418.963213	0.086528	0.218402	1184.668701
7418.964130	0.084778	0.218402	1262.409912
7418.965063	0.084866	0.218402	1341.589600
7418.965975	0.084847	0.218402	1418.970459
7418.966863	0.084785	0.218402	1494.259644
7418.967799	0.084869	0.218402	1573.697388
7418.968746	0.084891	0.218402	1654.089478
7418.969644	0.084855	0.218402	1730.289062
7418.970569	0.084833	0.218402	1808.759399
7418.971491	0.084862	0.218402	1887.002197
7420.012499	1.169345	0.201508	522.697021
7420.013480	0.580342	0.201508	1092.012329
7420.014403	0.085979	0.201508	1171.370972
7420.015296	0.084825	0.201508	1247.120117
7420.016216	0.084851	0.201508	1325.183105
7420.017156	0.084796	0.201508	1404.891479
7420.018084	0.084829	0.201508	1483.612915
7420.018978	0.084873	0.201508	1559.489380
7420.019917	0.084803	0.201508	1639.119873
7420.020835	0.084807	0.201508	1716.972778
7420.021763	0.084950	0.201508	1795.806274
7420.022657	0.084924	0.201508	1871.728638
7421.030860	1.165082	0.222366	513.801086
7421.031822	0.603431	0.222366	1094.302124
7421.032730	0.086492	0.222366	1172.836548
7421.033629	0.084954	0.222366	1249.209839
7421.034517	0.084946	0.222366	1324.642090
7421.035471	0.084961	0.222366	1405.694824
7421.036382	0.084921	0.222366	1483.057495
7421.037285	0.084873	0.222366	1559.697876
7421.038176	0.084899	0.222366	1635.342651
7421.039120	0.084880	0.222366	1715.469727
7421.040010	0.084822	0.222366	1790.961060
7421.040929	0.084822	0.222366	1868.912231
7422.078932	1.158113	0.198917	514.202148
7422.079835	0.684097	0.198917	1131.941406
7422.080760	0.087968	0.198917	1213.311401
7422.081703	0.084858	0.198917	1293.332886
7422.082616	0.084888	0.198917	1370.835327
7422.083503	0.084906	0.198917	1446.146973
7422.084433	0.084928	0.198917	1525.130005
7422.085362	0.084840	0.198917	1603.946411
7422.086279	0.084895	0.198917	1681.795166
7422.087170	0.084902	0.198917	1757.443115
7422.088127	0.084891	0.198917	1838.684082
7422.089068	0.084899	0.198917	1918.573730
7423.100882	1.164430	0.222805	515.842468
7423.101783	0.684646	0.222805	1132.708496
7423.102732	0.087810	0.222805	1216.040283
7423.103642	0.084877	0.222805	1293.278076
7423.104555	0.084935	0.222805	1370.823975
7423.105451	0.084796	0.222805	1446.801270
7423.106405	0.084800	0.222805	1527.700317
7423.107328	0.084858	0.222805	1606.024658
7423.108253	0.084877	0.222805	1684.535645
7423.109143	0.084851	0.222805	1760.053101
7423.110098	0.084928	0.222805	1841.159302
7423.111024	0.084818	0.222805	1919.700928
7424.142830	1.193339	0.199219	550.129089
7424.143738	0.648783	0.199219	1139.223999
7424.144625	0.087488	0.199219	1216.825684
7424.145586	0.084965	0.199219	1298.476685
7424.146479	0.084888	0.199219	1374.281372
7424.147372	0.084873	0.199219	1450.072998
7424.148304	0.084935	0.199219	1529.232666
7424.149215	0.085020	0.199219	1606.685425
7424.150122	0.084781	0.199219	1683.582275
7424.151012	0.084851	0.199219	1759.099731
7424.151960	0.084946	0.199219	1839.628784
7424.152869	0.084873	0.199219	1916.778320
7425.173451	1.172443	0.224135	517.047241
7425.174434	0.549327	0.224135	1057.036133
7425.175358	0.085851	0.224135	1136.362305
7425.176249	0.084906	0.224135	1212.013550
7425.177174	0.084822	0.224135	1290.473633
7425.178107	0.084840	0.224135	1369.629395
7425.179016	0.084888	0.224135	1446.792358
7425.179910	0.084851	0.224135	1522.649170
7425.180845	0.084855	0.224135	1601.988403
7425.181782	0.084913	0.224135	1681.552246
7425.182687	0.084957	0.224135	1758.438599
7425.183615	0.084946	0.224135	1837.268799
7426.205685	1.184909	0.199953	573.495728
7426.206625	0.584242	0.199953	1122.683105
7426.207540	0.086100	0.199953	1201.464478
7426.208429	0.084829	0.199953	1276.877563
7426.209366	0.084840	0.199953	1356.372681
7426.210272	0.084939	0.199953	1433.327393
7426.211199	0.084869	0.199953	1512.001343
7426.212091	0.084866	0.199953	1587.701538
7426.213036	0.084921	0.199953	1667.951538
7426.213957	0.084902	0.199953	1746.146606
7426.214846	0.084862	0.199953	1821.588989
7426.215785	0.084814	0.199953	1901.229736
7427.247055	1.160914	0.221323	509.641388
7427.248008	0.609778	0.221323	1090.759644
7427.248923	0.086598	0.221323	1169.996704
7427.249832	0.084851	0.221323	1247.126343
7427.250728	0.084877	0.221323	1323.175903
7427.251661	0.084965	0.221323	1402.447876
7427.252570	0.084906	0.221323	1479.627441
7427.253468	0.084884	0.221323	1555.853271
7427.254408	0.084906	0.221323	1635.664917
7427.255312	0.084851	0.221323	1712.370239
7427.256215	0.084899	0.221323	1789.033691
7427.257106	0.084851	0.221323	1864.635986
7428.268002	1.181818	0.202748	549.545227
7428.268910	0.640876	0.202748	1131.461060
7428.269838	0.087144	0.202748	1212.330322
7428.270778	0.084895	0.202748	1292.131592
7428.271694	0.084858	0.202748	1369.861938
7428.272585	0.084862	0.202748	1445.473999
7428.273528	0.084880	0.202748	1525.516235
7428.274472	0.084910	0.202748	1605.671021
7428.275382	0.084917	0.202748	1682.945435
7428.276278	0.084880	0.202748	1758.998291
7428.277210	0.084873	0.202748	1838.099976
7428.278135	0.084888	0.202748	1916.621094
7429.320175	1.174365	0.218668	554.300415
7429.321083	0.638584	0.218668	1134.134766
7429.322008	0.087074	0.218668	1214.678223
7429.322945	0.084785	0.218668	1294.121948
7429.323857	0.084825	0.218668	1371.482788
7429.324752	0.084877	0.218668	1447.447388
7429.325692	0.084829	0.218668	1527.186768
7429.326612	0.084869	0.218668	1605.266602
7429.327532	0.084906	0.218668	1683.380127
7429.328423	0.084946	0.218668	1759.067261
7429.329375	0.084888	0.218668	1839.880371
7429.330287	0.084935	0.218668	1917.341309
7430.329807	1.165078	0.206535	517.294678
7430.330704	0.686913	0.206535	1133.455566
7430.331651	0.086964	0.206535	1215.810547
7430.332551	0.084873	0.206535	1292.196289
7430.333440	0.084851	0.206535	1367.628906
7430.334376	0.084866	0.206535	1447.063232
7430.335288	0.084862	0.206535	1524.457397
7430.336197	0.084880	0.206535	1601.613647
7430.337090	0.084899	0.206535	1677.428223
7430.338052	0.084932	0.206535	1759.132446
7430.338968	0.084880	0.206535	1836.882812
7430.339870	0.084880	0.206535	1913.444946
7431.392204	1.155516	0.216191	507.271698
7431.393144	0.676139	0.216191	1142.842285
7431.394075	0.086539	0.216191	1223.410400
7431.395000	0.084818	0.216191	1301.867187
7431.395902	0.084822	0.216191	1378.376465
7431.396825	0.084906	0.216191	1456.744751
7431.397759	0.084855	0.216191	1535.999023
7431.398683	0.084844	0.216191	1614.394653
7431.399574	0.084877	0.216191	1690.019775
7431.400520	0.084822	0.216191	1770.261230
7431.401459	0.084822	0.216191	1849.908936
7431.402351	0.084913	0.216191	1925.651611
7432.394190	1.163200	0.210039	509.481415
7432.395142	0.655349	0.210039	1133.373779
7432.396054	0.086448	0.210039	1212.214111
7432.396976	0.084862	0.210039	1290.456909
7432.397875	0.084858	0.210039	1366.744629
7432.398819	0.084833	0.210039	1446.826782
7432.399740	0.084917	0.210039	1525.035278
7432.400660	0.084902	0.210039	1603.145386
7432.401548	0.084877	0.210039	1678.515869
7432.402497	0.084836	0.210039	1759.025635
7432.403409	0.084910	0.210039	1836.463257
7432.404307	0.084921	0.210039	1912.722046
7433.462730	1.156978	0.211373	507.913147
7433.463626	0.695687	0.211373	1131.248901
7433.464589	0.086656	0.211373	1214.699097
7433.465494	0.084822	0.211373	1291.462769
7433.466383	0.084932	0.211373	1366.967041
7433.467299	0.084957	0.211373	1444.787964
7433.468209	0.084957	0.211373	1522.099121
7433.469107	0.084880	0.211373	1598.321655
7433.469999	0.084858	0.211373	1674.015381
7433.470932	0.084935	0.211373	1753.260010
7433.471851	0.084917	0.211373	1831.298706
7433.472754	0.084902	0.211373	1907.965576
7434.459634	1.177299	0.210777	549.798401
7434.460566	0.618772	0.210777	1126.493896
7434.461498	0.086305	0.210777	1206.930054
7434.462386	0.084822	0.210777	1282.251831
7434.463316	0.084814	0.210777	1361.129272
7434.464249	0.084866	0.210777	1440.308960
7434.465150	0.084814	0.210777	1516.726807
7434.466059	0.084851	0.210777	1593.856445
7434.466985	0.084822	0.210777	1672.401367
7434.467924	0.084814	0.210777	1752.042114
7434.468818	0.084921	0.210777	1827.961182
7434.469740	0.084767	0.210777	1906.116211
7435.532282	1.186047	0.209536	565.744568
7435.533223	0.588468	0.209536	1119.492920
7435.534112	0.086492	0.209536	1196.384033
7435.535036	0.084771	0.209536	1274.712036
7435.535973	0.084836	0.209536	1354.203735
7435.536890	0.084847	0.209536	1432.008789
7435.537788	0.084895	0.209536	1508.244507
7435.538737	0.084917	0.209536	1588.830688
7435.539668	0.084917	0.209536	1667.888428
7435.540594	0.084906	0.209536	1746.511353
7435.541495	0.084829	0.209536	1822.942383
7435.542435	0.084844	0.209536	1902.695557
7436.526541	1.155882	0.216038	506.276520
7436.527526	0.580854	0.216038	1078.418213
7436.528434	0.086162	0.216038	1156.653442
7436.529337	0.084888	0.216038	1233.307007
7436.530233	0.084818	0.216038	1309.304077
7436.531177	0.084913	0.216038	1389.462280
7436.532081	0.084825	0.216038	1466.144531
7436.532971	0.084862	0.216038	1541.671753
7436.533899	0.084946	0.216038	1620.501953
7436.534801	0.084888	0.216038	1697.070679
7436.535700	0.084895	0.216038	1773.391357
7436.536590	0.084840	0.216038	1848.899048
7437.600238	1.208855	0.207526	563.326416
7437.601167	0.601384	0.207526	1122.012451
7437.602073	0.086609	0.207526	1200.480103
7437.602964	0.084818	0.207526	1276.053101
7437.603915	0.084880	0.207526	1356.774292
7437.604823	0.084803	0.207526	1433.775879
7437.605724	0.084891	0.207526	1510.262939
7437.606659	0.084954	0.207526	1589.694580
7437.607560	0.084899	0.207526	1666.188232
7437.608454	0.084822	0.207526	1742.018921
7437.609344	0.084822	0.207526	1817.510254
7437.610274	0.084954	0.207526	1896.517090
7438.593993	1.157549	0.217101	503.533783
7438.594941	0.631754	0.217101	1102.436646
7438.595885	0.086525	0.217101	1184.115967
7438.596811	0.084807	0.217101	1262.647339
7438.597705	0.084778	0.217101	1338.438721
7438.598652	0.084829	0.217101	1418.771851
7438.599586	0.084891	0.217101	1498.060425
7438.600475	0.084928	0.217101	1573.561401
7438.601395	0.084851	0.217101	1651.624390
7438.602332	0.084844	0.217101	1731.122925
7438.603260	0.084833	0.217101	1809.847778
7438.604162	0.084950	0.217101	1886.472656
7439.668705	1.176321	0.207893	528.168030
7439.669602	0.684141	0.207893	1141.842163
7439.670490	0.087946	0.207893	1219.937866
7439.671458	0.084785	0.207893	1302.009888
7439.672357	0.084877	0.207893	1378.314087
7439.673244	0.084858	0.207893	1453.583496
7439.674157	0.084803	0.207893	1531.009033
7439.675091	0.084836	0.207893	1610.246216
7439.676014	0.084803	0.207893	1688.519775
7439.676909	0.084803	0.207893	1764.418823
7439.677849	0.084800	0.207893	1844.130615
7439.678763	0.084869	0.207893	1921.701172
7440.662471	1.161475	0.218833	507.564392
7440.663434	0.595543	0.218833	1081.072510
7440.664346	0.086510	0.218833	1159.969604
7440.665245	0.084833	0.218833	1236.234253
7440.666163	0.084950	0.218833	1314.218262
7440.667086	0.084906	0.218833	1392.586548
7440.667986	0.084818	0.218833	1468.922852
7440.668877	0.084910	0.218833	1544.577393
7440.669826	0.084924	0.218833	1625.170532
7440.670729	0.084818	0.218833	1701.761230
7440.671625	0.084928	0.218833	1777.856689
7440.672519	0.084844	0.218833	1853.707031
7441.735126	1.177134	0.209202	527.355957
7441.736110	0.535298	0.209202	1054.088989
7441.737032	0.085701	0.209202	1133.104980
7441.737922	0.084781	0.209202	1208.560547
7441.738835	0.084884	0.209202	1286.059692
7441.739775	0.084778	0.209202	1365.750854
7441.740704	0.084803	0.209202	1444.533325
7441.741604	0.084895	0.209202	1520.938843
7441.742530	0.084807	0.209202	1599.470215
7441.743470	0.084763	0.209202	1679.147583
7441.744386	0.084855	0.209202	1756.874512
7441.745282	0.084745	0.209202	1832.805908
7442.729930	1.161914	0.219256	507.756470
7442.730910	0.607786	0.219256	1103.386475
7442.731831	0.086268	0.219256	1182.839600
7442.732747	0.084847	0.219256	1260.559814
7442.733635	0.084807	0.219256	1335.868530
7442.734582	0.084884	0.219256	1416.253662
7442.735505	0.084847	0.219256	1494.567871
7442.736400	0.084800	0.219256	1570.463745
7442.737325	0.084888	0.219256	1648.984863
7442.738248	0.084814	0.219256	1727.268555
7442.739168	0.084899	0.219256	1805.375366
7442.740062	0.084891	0.219256	1881.268188
7443.803660	1.226565	0.208142	620.641907
7443.804571	0.579587	0.208142	1148.645996
7443.805490	0.086166	0.208142	1227.832275
7443.806376	0.084851	0.208142	1303.010376
7443.807313	0.084851	0.208142	1382.515869
7443.808214	0.084760	0.208142	1458.884155
7443.809107	0.084862	0.208142	1534.666016
7443.810032	0.084899	0.208142	1613.197266
7443.810951	0.084811	0.208142	1691.138428
7443.811855	0.084866	0.208142	1767.857056
7443.812748	0.084866	0.208142	1843.642090
7443.813695	0.084899	0.208142	1924.041138
7444.797901	1.157234	0.217129	509.182953
7444.798869	0.609496	0.217129	1099.174927
7444.799803	0.086060	0.217129	1179.554565
7444.800724	0.084891	0.217129	1257.739502
7444.801615	0.084844	0.217129	1333.335327
7444.802558	0.084866	0.217129	1413.363770
7444.803492	0.084873	0.217129	1492.635254
7444.804391	0.084818	0.217129	1568.886719
7444.805308	0.084807	0.217129	1646.654907
7444.806249	0.084851	0.217129	1726.499756
7444.807167	0.084910	0.217129	1804.446777
7444.808058	0.084899	0.217129	1880.091553
7445.870611	1.210620	0.210201	617.416199
7445.871529	0.566235	0.210201	1137.220215
7445.872458	0.085876	0.210201	1216.999512
7445.873346	0.084858	0.210201	1292.353760
7445.874271	0.084844	0.210201	1370.834229
7445.875208	0.084950	0.210201	1450.432373
7445.876125	0.084829	0.210201	1528.220703
7445.877018	0.084877	0.210201	1604.015625
7445.877969	0.084778	0.210201	1684.639404
7445.878904	0.084840	0.210201	1763.964844
7445.879803	0.084891	0.210201	1840.282227
7445.880718	0.084873	0.210201	1917.941040
7446.865869	1.177039	0.216485	520.251038
7446.866849	0.572615	0.216485	1081.413452
7446.867748	0.086254	0.216485	1158.955444
7446.868635	0.084847	0.216485	1234.215088
7446.869581	0.084943	0.216485	1314.570801
7446.870492	0.084858	0.216485	1391.876831
7446.871394	0.084957	0.216485	1468.508301
7446.872286	0.084921	0.216485	1544.257568
7446.873232	0.084979	0.216485	1624.647949
7446.874135	0.084939	0.216485	1701.347778
7446.875027	0.084811	0.216485	1776.999023
7446.875933	0.084862	0.216485	1853.884033
7447.937485	1.157820	0.211901	510.598511
7447.938377	0.702744	0.211901	1137.446289
7447.939321	0.086935	0.211901	1219.512695
7447.940236	0.084910	0.211901	1297.205078
7447.941141	0.084855	0.211901	1373.998657
7447.942055	0.084803	0.211901	1451.509033
7447.942975	0.084954	0.211901	1529.666382
7447.943881	0.084811	0.211901	1606.505005
7447.944775	0.084829	0.211901	1682.342163
7447.945716	0.084921	0.211901	1762.252441
7447.946614	0.084884	0.211901	1838.478271
7447.947518	0.084888	0.211901	1915.216797
7448.935401	1.180074	0.212984	548.734619
7448.936312	0.636387	0.212984	1128.482910
7448.937200	0.087202	0.212984	1205.918457
7448.938167	0.084899	0.212984	1288.015503
7448.939105	0.084899	0.212984	1367.650513
7448.940006	0.084847	0.212984	1444.098022
7448.940927	0.084829	0.212984	1522.225586
7448.941860	0.084840	0.212984	1601.381348
7448.942776	0.084910	0.212984	1679.158569
7448.943673	0.084840	0.212984	1755.260132
7448.944599	0.084910	0.212984	1833.886475
7448.945535	0.084847	0.212984	1913.303711
7450.003461	1.196224	0.216569	593.327271
7450.004367	0.596096	0.216569	1133.390381
7450.005285	0.086294	0.216569	1212.608276
7450.006184	0.084913	0.216569	1288.945312
7450.007127	0.084727	0.216569	1368.842407
7450.008047	0.084844	0.216569	1446.898682
7450.008947	0.084895	0.216569	1523.304199
7450.009877	0.084884	0.216569	1602.246338
7450.010809	0.084917	0.216569	1681.388916
7450.011730	0.084811	0.216569	1759.499634
7450.012618	0.084818	0.216569	1834.818115
7450.013579	0.084924	0.216569	1916.430420
7451.005439	1.222273	0.209842	600.135986
7451.006363	0.571868	0.209842	1128.541748
7451.007265	0.086400	0.209842	1206.474731
7451.008153	0.084924	0.209842	1281.887573
7451.009100	0.084972	0.209842	1362.355957
7451.010003	0.084924	0.209842	1439.042603
7451.010893	0.084858	0.209842	1514.566528
7451.011821	0.084917	0.209842	1593.369507
7451.012733	0.084965	0.209842	1670.857178
7451.013642	0.084851	0.209842	1747.986816
7451.014538	0.084862	0.209842	1824.023193
7451.015470	0.084946	0.209842	1903.193115
7452.067822	1.179730	0.221266	547.394836
7452.068739	0.640367	0.221266	1134.611816
7452.069671	0.086671	0.221266	1215.389282
7452.070560	0.084781	0.221266	1290.760010
7452.071499	0.084796	0.221266	1370.383545
7452.072437	0.084818	0.221266	1449.942993
7452.073341	0.084888	0.221266	1526.681519
7452.074257	0.084807	0.221266	1604.364868
7452.075183	0.084946	0.221266	1683.025146
7452.076117	0.084888	0.221266	1762.310303
7452.077014	0.084847	0.221266	1838.418457
7452.077941	0.084840	0.221266	1917.065186
7453.078002	1.187637	0.206346	568.877991
7453.078900	0.633069	0.206346	1137.373779
7453.079842	0.086916	0.206346	1219.249146
7453.080750	0.084873	0.206346	1296.313843
7453.081670	0.084895	0.206346	1374.417236
7453.082567	0.084888	0.206346	1450.561523
7453.083529	0.084924	0.206346	1532.258667
7453.084446	0.084829	0.206346	1610.046997
7453.085337	0.084921	0.206346	1685.711304
7453.086283	0.084880	0.206346	1766.008179
7453.087177	0.084781	0.206346	1841.802856
7453.088095	0.084840	0.206346	1919.686035
7454.130137	1.167286	0.224739	522.944336
7454.131035	0.684324	0.224739	1137.467041
7454.131961	0.087993	0.224739	1218.948730
7454.132863	0.084906	0.224739	1295.533936
7454.133764	0.084862	0.224739	1371.994629
7454.134649	0.084884	0.224739	1447.116943
7454.135586	0.084968	0.224739	1526.732178
7454.136504	0.084924	0.224739	1604.692749
7454.137402	0.084862	0.224739	1680.898926
7454.138291	0.084844	0.224739	1756.325073
7454.139246	0.085085	0.224739	1837.581665
7454.140149	0.084906	0.224739	1914.251831
7455.151074	1.196675	0.201963	539.700317
7455.152047	0.547529	0.201963	1072.446289
7455.152968	0.085909	0.201963	1151.568848
7455.153855	0.084862	0.201963	1226.841553
7455.154804	0.084844	0.201963	1307.358276
7455.155733	0.084811	0.201963	1386.147461
7455.156628	0.084939	0.201963	1462.167847
7455.157543	0.084855	0.201963	1539.809937
7455.158474	0.084811	0.201963	1618.768799
7455.159386	0.084902	0.201963	1696.199707
7455.160275	0.084800	0.201963	1771.586670
7455.161207	0.084895	0.201963	1850.708862
7456.193009	1.182770	0.226676	562.998413
7456.193955	0.583813	0.226676	1115.285889
7456.194882	0.086082	0.226676	1195.083496
7456.195771	0.084807	0.226676	1270.477051
7456.196703	0.084917	0.226676	1349.619629
7456.197637	0.084847	0.226676	1428.867065
7456.198534	0.084866	0.226676	1504.991577
7456.199461	0.084840	0.226676	1583.638306
7456.200390	0.084833	0.226676	1662.447998
7456.201325	0.084895	0.226676	1741.824829
7456.202227	0.084825	0.226676	1818.337402
7456.203138	0.084836	0.226676	1895.623413
7457.224138	1.164800	0.201592	512.511902
7457.225086	0.653763	0.201592	1132.279541
7457.225998	0.086594	0.201592	1211.253540
7457.226901	0.084869	0.201592	1287.890625
7457.227791	0.084855	0.201592	1363.411377
7457.228752	0.084968	0.201592	1445.065918
7457.229664	0.084833	0.201592	1522.433350
7457.230565	0.084862	0.201592	1598.894043
7457.231454	0.084814	0.201592	1674.294067
7457.232380	0.084935	0.201592	1752.944214
7457.233281	0.084866	0.201592	1829.408203
7457.234166	0.084873	0.201592	1904.520874
7458.254861	1.240979	0.228094	614.284607
7458.255774	0.582078	0.228094	1145.721436
7458.256670	0.086481	0.228094	1223.208130
7458.257565	0.084811	0.228094	1299.113770
7458.258512	0.084954	0.228094	1379.564819
7458.259426	0.084943	0.228094	1457.202393
7458.260324	0.084895	0.228094	1533.438110
7458.261247	0.084862	0.228094	1611.765747
7458.262156	0.084950	0.228094	1688.985229
7458.263060	0.084866	0.228094	1765.703857
7458.263948	0.084895	0.228094	1841.090576
7458.264893	0.084994	0.228094	1921.409790
7459.296741	1.188021	0.200791	551.241882
7459.297678	0.596473	0.200791	1110.137451
7459.298572	0.086715	0.200791	1187.660767
7459.299507	0.084855	0.200791	1267.000000
7459.300439	0.084847	0.200791	1346.077759
7459.301356	0.084906	0.200791	1423.936523
7459.302241	0.084888	0.200791	1499.062134
7459.303174	0.084924	0.200791	1578.296509
7459.304112	0.084818	0.200791	1657.855957
7459.305009	0.084913	0.200791	1734.023193
7459.305931	0.084778	0.200791	1812.188354
7459.306870	0.084910	0.200791	1891.918579
7460.319188	1.167649	0.228211	521.939087
7460.320097	0.678212	0.228211	1138.433594
7460.320988	0.087726	0.228211	1216.597290
7460.321938	0.084884	0.228211	1297.237061
7460.322855	0.084880	0.228211	1375.072388
7460.323774	0.084924	0.228211	1453.117798
7460.324660	0.084847	0.228211	1528.292603
7460.325601	0.084884	0.228211	1608.168457
7460.326511	0.084844	0.228211	1685.376221
7460.327432	0.084932	0.228211	1763.598267
7460.328330	0.084884	0.228211	1839.824097
7460.329276	0.084877	0.228211	1920.117432
7461.367241	1.167836	0.201491	510.344147
7461.368204	0.596583	0.201491	1084.853760
7461.369116	0.086495	0.201491	1163.737549
7461.370014	0.084811	0.201491	1239.897705
7461.370947	0.084946	0.201491	1319.152588
7461.371858	0.084932	0.201491	1396.525269
7461.372767	0.084924	0.201491	1473.721436
7461.373659	0.084818	0.201491	1549.379150
7461.374610	0.085023	0.201491	1630.236206
7461.375514	0.084965	0.201491	1707.044189
7461.376418	0.084910	0.201491	1783.802490
7461.377308	0.084884	0.201491	1859.349243
7462.384101	1.172908	0.226955	530.154297
7462.385001	0.672616	0.226955	1135.508789
7462.385930	0.087689	0.226955	1216.972046
7462.386870	0.084895	0.226955	1296.773315
7462.387789	0.084895	0.226955	1374.791870
7462.388675	0.084880	0.226955	1449.995850
7462.389597	0.084884	0.226955	1528.258911
7462.390531	0.084902	0.226955	1607.557739
7462.391464	0.084858	0.226955	1686.730591
7462.392364	0.084921	0.226955	1763.159180
7462.393286	0.084866	0.226955	1841.405396
7462.394217	0.084917	0.226955	1920.463135
7463.436771	1.170473	0.204497	543.099243
7463.437680	0.640569	0.204497	1125.376343
7463.438619	0.087297	0.204497	1207.348633
7463.439539	0.084880	0.204497	1285.438599
7463.440459	0.084847	0.204497	1363.498169
7463.441349	0.084928	0.204497	1439.084106
7463.442297	0.084847	0.204497	1519.519409
7463.443200	0.084862	0.204497	1596.149902
7463.444111	0.084873	0.204497	1673.469238
7463.445005	0.084818	0.204497	1749.296631
7463.445950	0.084891	0.204497	1829.518921
7463.446868	0.084847	0.204497	1907.408813
7464.451067	1.201044	0.224981	584.908264
7464.452005	0.574827	0.224981	1124.095703
7464.452904	0.086360	0.224981	1201.733276
7464.453797	0.084935	0.224981	1277.580566
7464.454737	0.084961	0.224981	1357.443848
7464.455642	0.084862	0.224981	1434.244019
7464.456542	0.084829	0.224981	1510.590210
7464.457433	0.084968	0.224981	1586.296875
7464.458375	0.084932	0.224981	1666.302490
7464.459281	0.084869	0.224981	1743.194092
7464.460171	0.084880	0.224981	1818.737671
7464.461114	0.084950	0.224981	1898.845459
7465.503742	1.185187	0.209101	583.111877
7465.504664	0.584462	0.209101	1121.985596
7465.505559	0.086576	0.209101	1199.471069
7465.506447	0.084895	0.209101	1274.857788
7465.507386	0.084950	0.209101	1354.625732
7465.508300	0.084866	0.209101	1432.192993
7465.509201	0.084965	0.209101	1508.746094
7465.510089	0.084855	0.209101	1584.097046
7465.511035	0.085005	0.209101	1664.511719
7465.511945	0.084877	0.209101	1741.749512
7465.512843	0.084968	0.209101	1818.051025
7465.513775	0.084950	0.209101	1897.224365
7466.519526	1.199396	0.222012	560.117798
7466.520463	0.586538	0.222012	1109.703979
7466.521355	0.086569	0.222012	1186.923218
7466.522271	0.084836	0.222012	1264.633423
7466.523218	0.084840	0.222012	1344.977051
7466.524128	0.084921	0.222012	1422.254883
7466.525015	0.084899	0.222012	1497.560059
7466.525959	0.084833	0.222012	1577.642212
7466.526894	0.084844	0.222012	1656.971069
7466.527783	0.084968	0.222012	1732.507812
7466.528698	0.084840	0.222012	1810.136475
7466.529641	0.084899	0.222012	1890.195923
7467.570631	1.158069	0.211071	504.917999
7467.571633	0.551858	0.211071	1057.879639
7467.572527	0.086155	0.211071	1134.901978
7467.573449	0.084884	0.211071	1213.165039
7467.574336	0.084844	0.211071	1288.421387
7467.575283	0.084800	0.211071	1368.726807
7467.576185	0.084917	0.211071	1445.321899
7467.577075	0.084902	0.211071	1520.885010
7467.578000	0.084976	0.211071	1599.487427
7467.578907	0.084884	0.211071	1676.477295
7467.579834	0.084785	0.211071	1755.073120
7467.580727	0.084943	0.211071	1830.926880
7468.588507	1.185773	0.221210	534.783508
7468.589416	0.655078	0.221210	1130.249512
7468.590356	0.087023	0.221210	1212.050903
7468.591263	0.084921	0.221210	1289.073975
7468.592168	0.084899	0.221210	1365.907227
7468.593056	0.085009	0.221210	1441.394775
7468.593999	0.084976	0.221210	1521.526733
7468.594904	0.084965	0.221210	1598.419678
7468.595793	0.084899	0.221210	1673.894653
7468.596717	0.084990	0.221210	1752.425659
7468.597633	0.084976	0.221210	1830.263306
7468.598544	0.084932	0.221210	1907.635986
7469.637082	1.168777	0.211848	518.936951
7469.638021	0.622244	0.211848	1103.223755
7469.638912	0.087070	0.211848	1180.803345
7469.639864	0.084829	0.211848	1261.560669
7469.640795	0.084803	0.211848	1340.512695
7469.641713	0.084910	0.211848	1418.459717
7469.642601	0.084913	0.211848	1493.862793
7469.643541	0.084822	0.211848	1573.595215
7469.644464	0.084862	0.211848	1651.922852
7469.645366	0.084829	0.211848	1728.438721
7469.646278	0.084833	0.211848	1805.806152
7469.647216	0.084851	0.211848	1885.396484
7470.656977	1.157512	0.218862	508.147858
7470.657869	0.707000	0.218862	1138.791504
7470.658813	0.087184	0.218862	1221.093018
7470.659750	0.084873	0.218862	1300.619019
7470.660666	0.084961	0.218862	1378.443237
7470.661555	0.084891	0.218862	1453.911621
7470.662509	0.084954	0.218862	1534.957397
7470.663444	0.084880	0.218862	1614.320557
7470.664341	0.084902	0.218862	1690.477905
7470.665264	0.084858	0.218862	1768.802246
7470.666197	0.084844	0.218862	1847.961426
7470.667112	0.084913	0.218862	1925.657104
7471.703496	1.154656	0.214410	505.739258
7471.704476	0.583451	0.214410	1077.521240
7471.705373	0.086356	0.214410	1154.982788
7471.706296	0.084950	0.214410	1233.391602
7471.707186	0.085012	0.214410	1309.052490
7471.708139	0.084939	0.214410	1389.999268
7471.709040	0.084932	0.214410	1466.522705
7471.709928	0.084950	0.214410	1541.958252
7471.710856	0.084954	0.214410	1620.795166
7471.711780	0.084998	0.214410	1699.332886
7471.712701	0.084979	0.214410	1777.598755
7471.713591	0.084950	0.214410	1853.204224
7472.726520	1.200831	0.217673	578.800659
7472.727446	0.581909	0.217673	1117.648560
7472.728346	0.086631	0.217673	1195.616333
7472.729233	0.084844	0.217673	1270.872681
7472.730185	0.085009	0.217673	1351.800781
7472.731096	0.084957	0.217673	1429.196899
7472.731987	0.084921	0.217673	1504.861206
7472.732895	0.084979	0.217673	1582.022339
7472.733831	0.085001	0.217673	1661.583496
7472.734740	0.085012	0.217673	1738.859619
7472.735640	0.084939	0.217673	1815.304687
7472.736575	0.085001	0.217673	1894.780884
7473.769452	1.202714	0.216098	556.856384
7473.770362	0.638694	0.216098	1138.067871
7473.771254	0.087246	0.216098	1215.891357
7473.772213	0.084789	0.216098	1297.203857
7473.773142	0.084844	0.216098	1376.023682
7473.774061	0.084932	0.216098	1454.075806
7473.774952	0.084957	0.216098	1529.772705
7473.775894	0.084924	0.216098	1609.771362
7473.776833	0.084979	0.216098	1689.566895
7473.777730	0.084891	0.216098	1765.714478
7473.778654	0.084921	0.216098	1844.181152
7473.779592	0.084880	0.216098	1923.798950
7474.795477	1.176420	0.215623	527.036011
7474.796376	0.681116	0.215623	1139.359009
7474.797342	0.086869	0.215623	1223.274414
7474.798250	0.084851	0.215623	1300.319214
7474.799171	0.084906	0.215623	1378.517700
7474.800062	0.084943	0.215623	1454.201538
7474.800994	0.084968	0.215623	1533.391968
7474.801891	0.084895	0.215623	1609.542847
7474.802782	0.085063	0.215623	1685.334351
7474.803714	0.085045	0.215623	1764.596436
7474.804623	0.084866	0.215623	1841.739380
7474.805559	0.084943	0.215623	1921.245728
7475.836898	1.187728	0.218386	538.040894
7475.837829	0.629059	0.218386	1123.694702
7475.838718	0.087118	0.218386	1201.142578
7475.839662	0.084968	0.218386	1281.352661
7475.840560	0.084862	0.218386	1357.558838
7475.841461	0.084888	0.218386	1434.042603
7475.842350	0.084961	0.218386	1509.572876
7475.843290	0.084939	0.218386	1589.415527
7475.844200	0.084906	0.218386	1666.679932
7475.845104	0.084899	0.218386	1743.428345
7475.846041	0.084998	0.218386	1823.071045
7475.846939	0.084979	0.218386	1899.382446
7476.862931	1.167858	0.215901	512.689514
7476.863836	0.683170	0.215901	1130.958496
7476.864787	0.086964	0.215901	1213.661377
7476.865713	0.084895	0.215901	1292.274170
7476.866612	0.084950	0.215901	1368.644165
7476.867523	0.084789	0.215901	1445.886719
7476.868454	0.084869	0.215901	1524.900146
7476.869385	0.084935	0.215901	1603.974854
7476.870282	0.084998	0.215901	1680.217651
7476.871206	0.084778	0.215901	1758.552368
7476.872140	0.084844	0.215901	1837.796387
7476.873079	0.084862	0.215901	1917.481812
7477.904353	1.188757	0.217391	538.507080
7477.905273	0.649065	0.217391	1135.646851
7477.906174	0.087070	0.217391	1214.097168
7477.907106	0.084880	0.217391	1293.205688
7477.908030	0.084833	0.217391	1371.591187
7477.908948	0.084917	0.217391	1449.544922
7477.909835	0.084902	0.217391	1524.853271
7477.910793	0.084906	0.217391	1606.193237
7477.911699	0.084902	0.217391	1683.114746
7477.912615	0.084921	0.217391	1760.902100
7477.913511	0.084983	0.217391	1837.046753
7477.914451	0.084880	0.217391	1916.834351
7478.930900	1.174907	0.216255	522.833679
7478.931804	0.677743	0.216255	1135.513184
7478.932714	0.087810	0.216255	1215.420288
7478.933650	0.084869	0.216255	1294.858032
7478.934557	0.084833	0.216255	1371.801392
7478.935449	0.084906	0.216255	1447.537598
7478.936401	0.084946	0.216255	1528.406494
7478.937308	0.084855	0.216255	1605.369751
7478.938208	0.084858	0.216255	1681.742310
7478.939092	0.084829	0.216255	1756.731201
7478.940029	0.084924	0.216255	1836.305298
7478.940935	0.084869	0.216255	1913.197021
7479.972837	1.188516	0.217158	539.586121
7479.973766	0.634709	0.217158	1129.231201
7479.974657	0.087045	0.217158	1206.787964
7479.975576	0.084917	0.217158	1284.826660
7479.976484	0.084979	0.217158	1361.987793
7479.977390	0.084917	0.217158	1438.922607
7479.978289	0.084932	0.217158	1515.276123
7479.979219	0.084990	0.217158	1594.317017
7479.980126	0.084979	0.217158	1671.393188
7479.981036	0.084913	0.217158	1748.664307
7479.981926	0.084921	0.217158	1824.243652
7479.982865	0.084935	0.217158	1903.997925
7480.997358	1.179943	0.217000	558.112854
7480.998309	0.582689	0.217000	1112.250244
7480.999234	0.086085	0.217000	1191.879028
7481.000125	0.084877	0.217000	1267.504150
7481.001059	0.084833	0.217000	1346.737915
7481.001991	0.084862	0.217000	1425.829346
7481.002897	0.084899	0.217000	1502.747559
7481.003807	0.084858	0.217000	1579.968750
7481.004741	0.084976	0.217000	1659.335937
7481.005680	0.084858	0.217000	1739.017944
7481.006597	0.084873	0.217000	1816.846558
7481.007486	0.084913	0.217000	1892.334473
7482.041819	1.175914	0.215268	531.513306
7482.042713	0.687524	0.215268	1146.160156
7482.043658	0.087158	0.215268	1228.524658
7482.044563	0.084895	0.215268	1305.354614
7482.045479	0.084836	0.215268	1383.064819
7482.046377	0.084884	0.215268	1459.290649
7482.047334	0.084902	0.215268	1540.542236
7482.048250	0.084910	0.215268	1618.319458
7482.049146	0.085009	0.215268	1694.487061
7482.050069	0.084899	0.215268	1772.848511
7482.050987	0.084792	0.215268	1850.687988
7482.051905	0.084847	0.215268	1928.577881
7483.064266	1.153363	0.218954	500.559540
7483.065167	0.696914	0.218954	1128.479126
7483.066095	0.087330	0.218954	1209.521606
7483.067008	0.084858	0.218954	1286.997314
7483.067904	0.084943	0.218954	1363.105957
7483.068826	0.084987	0.218954	1441.463623
7483.069731	0.084939	0.218954	1518.333374
7483.070633	0.084858	0.218954	1594.875610
7483.071519	0.084818	0.218954	1670.024414
7483.072469	0.085001	0.218954	1750.775635
7483.073370	0.084932	0.218954	1827.299072
7483.074268	0.084844	0.218954	1903.488770
7484.110277	1.157992	0.213536	502.568481
7484.111262	0.586912	0.213536	1080.676514
7484.112188	0.086045	0.213536	1160.354126
7484.113108	0.084910	0.213536	1238.471069
7484.113999	0.084961	0.213536	1314.171265
7484.114960	0.084891	0.213536	1395.751831
7484.115894	0.084866	0.213536	1475.016357
7484.116785	0.084829	0.213536	1550.599121
7484.117704	0.084836	0.213536	1628.563843
7484.118634	0.084935	0.213536	1707.553711
7484.119552	0.084825	0.213536	1785.423462
7484.120444	0.084895	0.213536	1861.149780
7485.130218	1.192559	0.219977	550.962036
7485.131123	0.639309	0.219977	1129.536743
7485.132021	0.087162	0.219977	1207.808105
7485.132967	0.084935	0.219977	1288.156860
7485.133884	0.084954	0.219977	1366.059326
7485.134808	0.084928	0.219977	1444.532715
7485.135700	0.084888	0.219977	1520.252563
7485.136654	0.084880	0.219977	1601.228394
7485.137557	0.084814	0.219977	1677.815796
7485.138447	0.084818	0.219977	1753.303955
7485.139403	0.084954	0.219977	1834.519653
7485.140311	0.084847	0.219977	1911.561157
7486.179279	1.168396	0.214201	516.431030
7486.180185	0.689106	0.214201	1140.761475
7486.181074	0.087942	0.214201	1218.941772
7486.182025	0.084836	0.214201	1299.621216
7486.182933	0.085016	0.214201	1376.815674
7486.183831	0.084917	0.214201	1453.071167
7486.184720	0.084895	0.214201	1528.542847
7486.185659	0.085009	0.214201	1608.365845
7486.186569	0.084880	0.214201	1685.606934
7486.187466	0.084961	0.214201	1761.816895
7486.188395	0.084994	0.214201	1840.776245
7486.189297	0.084939	0.214201	1917.391235
7487.196628	1.159113	0.222709	510.009521
7487.197577	0.624016	0.222709	1102.200806
7487.198507	0.086331	0.222709	1182.488281
7487.199397	0.084836	0.222709	1257.992676
7487.200327	0.084880	0.222709	1336.931396
7487.201259	0.084910	0.222709	1416.067261
7487.202181	0.084866	0.222709	1494.313477
7487.203080	0.084976	0.222709	1570.706543
7487.204023	0.084895	0.222709	1650.762573
7487.204949	0.084822	0.222709	1729.307495
7487.205856	0.084906	0.222709	1806.317261
7487.206759	0.084866	0.222709	1882.951050
7488.248773	1.156014	0.210495	500.554260
7488.249739	0.600747	0.210495	1080.875977
7488.250646	0.086451	0.210495	1159.287354
7488.251578	0.084906	0.210495	1238.419800
7488.252470	0.084924	0.210495	1314.172241
7488.253424	0.084807	0.210495	1395.078247
7488.254343	0.084877	0.210495	1473.079956
7488.255230	0.084855	0.210495	1548.346069
7488.256178	0.084891	0.210495	1628.823120
7488.257074	0.084873	0.210495	1704.869385
7488.257999	0.084899	0.210495	1783.400635
7488.258885	0.084899	0.210495	1858.620850
7489.263573	1.172362	0.226036	524.045776
7489.264468	0.679929	0.226036	1132.582397
7489.265421	0.087023	0.226036	1215.515015
7489.266331	0.084851	0.226036	1292.729492
7489.267222	0.084913	0.226036	1368.387329
7489.268152	0.084943	0.226036	1447.384033
7489.269059	0.084895	0.226036	1524.383789
7489.269961	0.084873	0.226036	1600.939331
7489.270850	0.084906	0.226036	1676.420776
7489.271808	0.084990	0.226036	1757.841431
7489.272709	0.084935	0.226036	1834.368164
7489.273612	0.084910	0.226036	1911.041626
7490.316788	1.177119	0.209604	565.017212
7490.317729	0.572552	0.209604	1103.789062
7490.318654	0.085968	0.209604	1183.309448
7490.319552	0.084928	0.209604	1259.574707
7490.320497	0.084822	0.209604	1339.731323
7490.321427	0.084877	0.209604	1418.666626
7490.322338	0.085009	0.209604	1496.109375
7490.323243	0.084906	0.209604	1572.949341
7490.324175	0.084939	0.209604	1652.112427
7490.325111	0.084855	0.209604	1731.536499
7490.326004	0.084855	0.209604	1807.311768
7490.326919	0.084888	0.209604	1884.984009
7491.331021	1.161171	0.228139	508.592712
7491.331966	0.666947	0.228139	1138.857666
7491.332891	0.086378	0.228139	1218.757446
7491.333795	0.084869	0.228139	1295.479370
7491.334687	0.084899	0.228139	1371.208984
7491.335638	0.084932	0.228139	1451.979004
7491.336547	0.084906	0.228139	1529.158569
7491.337468	0.084869	0.228139	1607.323242
7491.338360	0.084928	0.228139	1683.078979
7491.339296	0.084950	0.228139	1762.592163
7491.340204	0.084847	0.228139	1839.633667
7491.341096	0.084877	0.228139	1915.343750
7492.383682	1.153403	0.205508	499.423615
7492.384651	0.610265	0.205508	1090.770264
7492.385560	0.086492	0.205508	1169.391235
7492.386468	0.084851	0.205508	1246.436035
7492.387363	0.084917	0.205508	1322.436768
7492.388298	0.084994	0.205508	1401.906006
7492.389205	0.084913	0.205508	1478.922363
7492.390094	0.084939	0.205508	1554.433105
7492.391028	0.084921	0.205508	1633.749023
7492.391942	0.084994	0.205508	1711.433472
7492.392852	0.084858	0.205508	1788.654663
7492.393755	0.084972	0.205508	1865.384277
7493.400563	1.201421	0.229476	563.466431
7493.401473	0.636346	0.229476	1142.541748
7493.402359	0.087246	0.229476	1219.841797
7493.403320	0.084789	0.229476	1301.323853
7493.404253	0.084913	0.229476	1380.547974
7493.405144	0.084891	0.229476	1456.186157
7493.406063	0.084891	0.229476	1534.201294
7493.407007	0.084888	0.229476	1614.335327
7493.407923	0.084873	0.229476	1692.078979
7493.408820	0.084899	0.229476	1768.233154
7493.409769	0.084873	0.229476	1848.777710
7493.410695	0.084917	0.229476	1927.410889
7494.449618	1.169150	0.205673	520.271973
7494.450519	0.683013	0.205673	1135.666504
7494.451457	0.087700	0.205673	1217.929321
7494.452361	0.084836	0.205673	1294.621460
7494.453266	0.084928	0.205673	1371.481323
7494.454155	0.084873	0.205673	1446.933472
7494.455105	0.084862	0.205673	1527.552490
7494.456001	0.084844	0.205673	1603.572510
7494.456917	0.084939	0.205673	1681.376587
7494.457813	0.084844	0.205673	1757.396606
7494.458757	0.084968	0.205673	1837.606689
7494.459669	0.084877	0.205673	1915.014282
7495.471078	1.200029	0.231986	559.213623
7495.471989	0.637137	0.231986	1139.645874
7495.472881	0.087279	0.231986	1217.498779
7495.473838	0.084840	0.231986	1298.690796
7495.474785	0.084935	0.231986	1379.124512
7495.475686	0.084976	0.231986	1455.687500
7495.476609	0.084957	0.231986	1534.103027
7495.477541	0.084946	0.231986	1613.272949
7495.478459	0.084957	0.231986	1691.263672
7495.479345	0.084917	0.231986	1766.500122
7495.480293	0.084976	0.231986	1847.057007
7495.481219	0.084932	0.231986	1925.703735
7496.514502	1.151049	0.204726	497.252960
7496.515456	0.655030	0.204726	1122.152100
7496.516372	0.086613	0.204726	1201.489136
7496.517298	0.084928	0.204726	1280.132446
7496.518186	0.084979	0.204726	1355.593994
7496.519128	0.084913	0.204726	1435.582397
7496.520050	0.084928	0.204726	1513.885986
7496.520940	0.084895	0.204726	1589.442505
7496.521844	0.084895	0.204726	1666.187622
7496.522770	0.084946	0.204726	1744.847900
7496.523698	0.084950	0.204726	1823.681396
7496.524600	0.084954	0.204726	1900.309570
7497.542605	1.159193	0.229956	508.885742
7497.543496	0.706604	0.229956	1138.469971
7497.544453	0.087059	0.229956	1221.785767
7497.545358	0.084961	0.229956	1298.675415
7497.546249	0.084990	0.229956	1374.401733
7497.547170	0.084968	0.229956	1452.657471
7497.548085	0.084979	0.229956	1530.413452
7497.548993	0.084833	0.229956	1607.441650
7497.549889	0.084858	0.229956	1683.474731
7497.550817	0.084979	0.229956	1762.335449
7497.551717	0.084954	0.229956	1838.793701
7497.552617	0.084924	0.229956	1915.225586
7498.577877	1.170959	0.206229	525.760803
7498.578769	0.687960	0.206229	1139.421387
7498.579731	0.086949	0.206229	1223.066772
7498.580676	0.084935	0.206229	1303.330688
7498.581582	0.084950	0.206229	1380.295288
7498.582506	0.084836	0.206229	1458.684082
7498.583438	0.084836	0.206229	1537.751587
7498.584370	0.084847	0.206229	1616.829346
7498.585265	0.084939	0.206229	1692.849731
7498.586217	0.084910	0.206229	1773.683716
7498.587145	0.084924	0.206229	1852.493530
7498.588070	0.084902	0.206229	1931.028198
7499.615198	1.180367	0.228155	525.263550
7499.616110	0.663424	0.228155	1130.306396
7499.617001	0.087524	0.228155	1208.290649
7499.617946	0.084869	0.228155	1288.492187
7499.618859	0.084873	0.228155	1365.981323
7499.619785	0.084899	0.228155	1444.597534
7499.620675	0.084906	0.228155	1520.163818
7499.621616	0.084917	0.228155	1600.070679
7499.622512	0.084847	0.228155	1676.093994
7499.623432	0.084910	0.228155	1754.210937
7499.624318	0.084979	0.228155	1829.502563
7499.625262	0.084932	0.228155	1909.677979
7500.640725	1.173182	0.206926	517.373413
7500.641652	0.652376	0.206926	1122.125488
7500.642552	0.087147	0.206926	1200.557983
7500.643474	0.084957	0.206926	1278.888550
7500.644393	0.085005	0.206926	1357.008057
7500.645299	0.084891	0.206926	1433.919678
7500.646202	0.084913	0.206926	1510.596436
7500.647150	0.084968	0.206926	1591.146362
7500.648052	0.084880	0.206926	1667.708496
7500.648950	0.084943	0.206926	1743.986938
7500.649835	0.084950	0.206926	1819.167603
7500.650763	0.084987	0.206926	1898.035156
7501.687778	1.184224	0.227208	532.900635
7501.688675	0.662252	0.227208	1126.940918
7501.689649	0.086506	0.227208	1211.198120
7501.690569	0.084946	0.227208	1289.348755
7501.691459	0.084895	0.227208	1364.905273
7501.692375	0.084836	0.227208	1442.615479
7501.693309	0.084807	0.227208	1521.825317
7501.694233	0.084858	0.227208	1600.234497
7501.695131	0.084880	0.227208	1676.457031
7501.696054	0.084800	0.227208	1754.727295
7501.696999	0.084840	0.227208	1834.901123
7501.697913	0.084924	0.227208	1912.521973
7502.703556	1.158028	0.209943	502.584351
7502.704520	0.616370	0.209943	1096.764648
7502.705437	0.086550	0.209943	1176.131226
7502.706361	0.084987	0.209943	1254.658813
7502.707250	0.084976	0.209943	1330.202148
7502.708206	0.084943	0.209943	1411.407349
7502.709104	0.084910	0.209943	1487.656250
7502.709995	0.084906	0.209943	1563.307495
7502.710944	0.084968	0.209943	1643.942383
7502.711834	0.084913	0.209943	1719.515259
7502.712749	0.084954	0.209943	1797.247803
7502.713644	0.084888	0.209943	1873.222290
7503.759861	1.174215	0.222680	563.623230
7503.760794	0.587911	0.222680	1112.144531
7503.761707	0.086459	0.222680	1191.081299
7503.762596	0.084899	0.222680	1266.556274
7503.763537	0.085038	0.222680	1346.576904
7503.764436	0.085027	0.222680	1423.015991
7503.765338	0.084891	0.222680	1499.588013
7503.766232	0.084939	0.222680	1575.523437
7503.767179	0.085071	0.222680	1656.085449
7503.768091	0.084891	0.222680	1733.506348
7503.768993	0.085001	0.222680	1810.177490
7503.769920	0.084968	0.222680	1888.943115
7504.767434	1.156685	0.212763	503.157806
7504.768360	0.688846	0.212763	1141.029541
7504.769303	0.086499	0.212763	1222.598145
7504.770218	0.084913	0.212763	1300.293823
7504.771109	0.084851	0.212763	1375.896118
7504.772029	0.084858	0.212763	1453.965820
7504.772971	0.084873	0.212763	1533.916260
7504.773890	0.084961	0.212763	1611.995361
7504.774776	0.084906	0.212763	1687.222046
7504.775716	0.084814	0.212763	1766.947632
7504.776652	0.084796	0.212763	1846.316772
7504.777551	0.084895	0.212763	1922.637451
7505.830346	1.176324	0.221927	515.230103
7505.831333	0.562800	0.221927	1070.713989
7505.832232	0.086166	0.221927	1148.177002
7505.833124	0.084902	0.221927	1223.909912
7505.834056	0.084869	0.221927	1303.008179
7505.834975	0.084939	0.221927	1381.067139
7505.835897	0.084888	0.221927	1459.333618
7505.836788	0.084957	0.221927	1535.030518
7505.837737	0.084972	0.221927	1615.668823
7505.838643	0.084954	0.221927	1692.636841
7505.839563	0.084902	0.221927	1770.746948
7505.840460	0.084913	0.221927	1846.914185
7506.832344	1.184542	0.216481	527.121277
7506.833303	0.582059	0.216481	1085.316162
7506.834234	0.086115	0.216481	1165.488770
7506.835132	0.084902	0.216481	1241.731079
7506.836081	0.084858	0.216481	1322.261719
7506.837033	0.084917	0.216481	1403.102661
7506.837922	0.084957	0.216481	1478.629639
7506.838839	0.084877	0.216481	1556.461548
7506.839772	0.084858	0.216481	1635.634399
7506.840704	0.084866	0.216481	1714.729248
7506.841603	0.084932	0.216481	1791.082764
7506.842520	0.084910	0.216481	1868.944946
7507.900362	1.161489	0.218592	509.893768
7507.901324	0.595312	0.218592	1082.584351
7507.902256	0.086144	0.218592	1162.870361
7507.903147	0.084869	0.218592	1238.489014
7507.904052	0.084807	0.218592	1315.239502
7507.904992	0.084895	0.218592	1395.040771
7507.905913	0.084899	0.218592	1473.232422
7507.906803	0.084847	0.218592	1548.746582
7507.907760	0.084877	0.218592	1629.973633
7507.908660	0.084866	0.218592	1706.352783
7507.909584	0.084847	0.218592	1784.751831
7507.910470	0.084888	0.218592	1859.962280
7508.899314	1.178782	0.217645	561.100098
7508.900254	0.567942	0.217645	1094.965576
7508.901166	0.086301	0.217645	1173.672363
7508.902062	0.084803	0.217645	1249.656250
7508.902998	0.084891	0.217645	1329.114502
7508.903902	0.084895	0.217645	1405.859619
7508.904795	0.084833	0.217645	1481.615234
7508.905688	0.084880	0.217645	1557.413452
7508.906622	0.084976	0.217645	1636.780640
7508.907536	0.084847	0.217645	1714.331177
7508.908442	0.084994	0.217645	1791.335693
7508.909374	0.084895	0.217645	1870.457886
7509.969391	1.199637	0.215957	556.631775
7509.970307	0.624049	0.215957	1128.260742
7509.971196	0.087114	0.215957	1205.705322
7509.972159	0.084862	0.215957	1287.427490
7509.973100	0.084822	0.215957	1367.244751
7509.973994	0.084932	0.215957	1443.173584
7509.974905	0.084946	0.215957	1520.559692
7509.975853	0.084932	0.215957	1601.074951
7509.976767	0.084935	0.215957	1678.705811
7509.977655	0.084957	0.215957	1754.147827
7509.978591	0.084895	0.215957	1833.609619
7509.979521	0.084943	0.215957	1912.606201
7510.966265	1.179386	0.219494	572.002136
7510.967188	0.582696	0.219494	1109.831055
7510.968090	0.086547	0.219494	1187.896118
7510.968978	0.084946	0.219494	1263.328369
7510.969932	0.084990	0.219494	1344.409058
7510.970846	0.084844	0.219494	1421.956299
7510.971738	0.084946	0.219494	1497.728394
7510.972628	0.084917	0.219494	1573.304565
7510.973577	0.084913	0.219494	1653.887329
7510.974487	0.085012	0.219494	1731.248413
7510.975382	0.084873	0.219494	1807.209839
7510.976305	0.085012	0.219494	1885.676147
7512.038377	1.176116	0.215156	552.774414
7512.039335	0.583931	0.215156	1112.179932
7512.040253	0.085928	0.215156	1191.061646
7512.041149	0.084855	0.215156	1267.091553
7512.042092	0.084862	0.215156	1347.116455
7512.043025	0.084913	0.215156	1426.340576
7512.043953	0.084954	0.215156	1505.177490
7512.044843	0.084884	0.215156	1580.724243
7512.045786	0.084888	0.215156	1660.773315
7512.046717	0.084910	0.215156	1739.824219
7512.047607	0.084943	0.215156	1815.423096
7512.048527	0.084891	0.215156	1893.523193
7513.033731	1.190687	0.220034	588.199463
7513.034654	0.575830	0.220034	1119.690674
7513.035564	0.086195	0.220034	1198.128174
7513.036464	0.084939	0.220034	1274.573242
7513.037416	0.084917	0.220034	1355.414185
7513.038335	0.084866	0.220034	1433.405762
7513.039259	0.085009	0.220034	1511.953613
7513.040151	0.084910	0.220034	1587.692993
7513.041098	0.084913	0.220034	1668.105957
7513.042015	0.084866	0.220034	1745.927856
7513.042903	0.084880	0.220034	1821.301636
7513.043848	0.084902	0.220034	1901.534302
7514.105802	1.168601	0.215349	511.847260
7514.106784	0.581931	0.215349	1083.303711
7514.107684	0.086396	0.215349	1161.060547
7514.108572	0.084979	0.215349	1236.522095
7514.109506	0.085042	0.215349	1315.950806
7514.110419	0.084965	0.215349	1393.523437
7514.111317	0.084957	0.215349	1469.815063
7514.112208	0.084957	0.215349	1545.511963
7514.113163	0.085012	0.215349	1626.698608
7514.114067	0.084906	0.215349	1703.453613
7514.114960	0.084998	0.215349	1779.356445
7514.115874	0.084957	0.215349	1857.007446
7515.101180	1.211071	0.219808	589.791382
7515.102135	0.553835	0.219808	1118.704224
7515.103050	0.085950	0.219808	1197.348267
7515.103938	0.084862	0.219808	1272.705811
7515.104877	0.084902	0.219808	1352.429077
7515.105812	0.084950	0.219808	1431.857300
7515.106729	0.084910	0.219808	1509.719482
7515.107623	0.084891	0.219808	1585.612305
7515.108577	0.084884	0.219808	1666.591675
7515.109506	0.084932	0.219808	1745.493164
7515.110408	0.084877	0.219808	1822.052002
7515.111327	0.084928	0.219808	1900.100830
7516.173316	1.187915	0.216304	591.581726
7516.174252	0.531757	0.216304	1089.305908
7516.175179	0.085781	0.216304	1168.825195
7516.176073	0.084961	0.216304	1244.780273
7516.177023	0.084921	0.216304	1325.454834
7516.177928	0.084877	0.216304	1402.268311
7516.178846	0.084979	0.216304	1480.279297
7516.179735	0.084847	0.216304	1555.708618
7516.180673	0.084950	0.216304	1635.391724
7516.181588	0.084880	0.216304	1713.057251
7516.182487	0.084913	0.216304	1789.394287
7516.183430	0.084913	0.216304	1869.467529
7517.169623	1.162720	0.219478	516.247559
7517.170523	0.684115	0.219478	1131.951050
7517.171448	0.087850	0.219478	1213.212646
7517.172394	0.084825	0.219478	1293.457520
7517.173319	0.084987	0.219478	1372.070068
7517.174209	0.084917	0.219478	1447.646240
7517.175150	0.084943	0.219478	1527.577271
7517.176071	0.084906	0.219478	1605.775757
7517.176976	0.085023	0.219478	1682.721802
7517.177876	0.084891	0.219478	1759.124023
7517.178817	0.084921	0.219478	1839.034302
7517.179756	0.084932	0.219478	1918.785156
7518.240751	1.187457	0.217697	550.980225
7518.241668	0.641169	0.217697	1138.932617
7518.242557	0.087180	0.217697	1216.435791
7518.243507	0.084880	0.217697	1297.072144
7518.244421	0.084880	0.217697	1374.652832
7518.245338	0.084965	0.217697	1452.565430
7518.246227	0.084943	0.217697	1528.079468
7518.247182	0.085042	0.217697	1609.294067
7518.248099	0.084961	0.217697	1687.203247
7518.248988	0.084950	0.217697	1762.723755
7518.249935	0.084921	0.217697	1843.143555
7518.250847	0.084862	0.217697	1920.537720
7519.238093	1.169147	0.218986	514.424561
7519.239073	0.585765	0.218986	1088.474609
7519.239977	0.086440	0.218986	1166.616699
7519.240873	0.084906	0.218986	1242.692505
7519.241810	0.084946	0.218986	1322.287231
7519.242721	0.084998	0.218986	1399.719971
7519.243625	0.084939	0.218986	1476.504761
7519.244518	0.084902	0.218986	1552.322510
7519.245470	0.085049	0.218986	1633.288940
7519.246371	0.084976	0.218986	1709.851929
7519.247273	0.084935	0.218986	1786.463623
7519.248162	0.084924	0.218986	1861.961304
7520.306635	1.163221	0.220360	510.654175
7520.307573	0.633142	0.220360	1104.541504
7520.308512	0.086532	0.220360	1185.795044
7520.309428	0.084888	0.220360	1263.552124
7520.310324	0.084939	0.220360	1339.657471
7520.311275	0.084891	0.220360	1420.389160
7520.312212	0.084921	0.220360	1499.959839
7520.313108	0.084950	0.220360	1576.074951
7520.314025	0.085023	0.220360	1654.041260
7520.314964	0.084811	0.220360	1733.678589
7520.315885	0.084891	0.220360	1811.863525
7520.316772	0.084913	0.220360	1887.181641
7521.307094	1.173787	0.217226	524.682556
7521.307995	0.683665	0.217226	1140.664307
7521.308911	0.087902	0.217226	1221.182129
7521.309853	0.084862	0.217226	1301.122192
7521.310756	0.084895	0.217226	1377.782349
7521.311679	0.084895	0.217226	1456.140503
7521.312569	0.084961	0.217226	1531.755737
7521.313526	0.084950	0.217226	1613.052856
7521.314442	0.084950	0.217226	1690.867065
7521.315333	0.084972	0.217226	1766.577026
7521.316277	0.084946	0.217226	1846.766357
7521.317179	0.084932	0.217226	1923.374756
7522.372062	1.184854	0.224046	535.553833
7522.372993	0.632900	0.224046	1124.784058
7522.373885	0.087136	0.224046	1202.509521
7522.374826	0.084928	0.224046	1282.426758
7522.375723	0.085045	0.224046	1358.712280
7522.376620	0.084954	0.224046	1434.915649
7522.377510	0.084987	0.224046	1510.553711
7522.378452	0.085052	0.224046	1590.673096
7522.379364	0.085023	0.224046	1668.214233
7522.380267	0.084924	0.224046	1744.900879
7522.381156	0.084965	0.224046	1820.434448
7522.382111	0.085020	0.224046	1901.628052
7523.378630	1.155981	0.213814	501.695923
7523.379550	0.692527	0.213814	1138.820679
7523.380500	0.086744	0.213814	1221.227905
7523.381441	0.084899	0.213814	1301.117554
7523.382333	0.084979	0.213814	1376.919067
7523.383266	0.085001	0.213814	1456.225220
7523.384204	0.084906	0.213814	1535.867065
7523.385115	0.084972	0.213814	1613.276489
7523.386013	0.084932	0.213814	1689.545166
7523.386962	0.084902	0.213814	1770.117432
7523.387901	0.084917	0.213814	1849.854492
7523.388798	0.084998	0.213814	1926.097290
7524.436951	1.170395	0.225613	523.166809
7524.437850	0.684976	0.225613	1138.959961
7524.438788	0.086935	0.225613	1220.504883
7524.439699	0.084877	0.225613	1297.827515
7524.440592	0.084957	0.225613	1373.694336
7524.441507	0.084932	0.225613	1451.406738
7524.442430	0.084968	0.225613	1529.832397
7524.443329	0.084954	0.225613	1606.205688
7524.444222	0.084954	0.225613	1682.069214
7524.445158	0.084954	0.225613	1761.585815
7524.446059	0.084913	0.225613	1838.092773
7524.446958	0.084979	0.225613	1914.489136
7525.449675	1.156853	0.210604	507.858459
7525.450657	0.595693	0.210604	1092.829346
7525.451584	0.086147	0.210604	1172.687988
7525.452479	0.084950	0.210604	1248.718140
7525.453398	0.084866	0.210604	1326.709717
7525.454336	0.084906	0.210604	1406.351562
7525.455255	0.084906	0.210604	1484.380127
7525.456144	0.084880	0.210604	1559.838745
7525.457074	0.084873	0.210604	1638.770630
7525.458006	0.084840	0.210604	1717.841553
7525.458928	0.084866	0.210604	1796.087769
7525.459818	0.084873	0.210604	1871.624756
7526.500310	1.181942	0.230403	534.237854
7526.501208	0.671982	0.230403	1137.678101
7526.502173	0.086788	0.230403	1221.428833
7526.503092	0.084902	0.230403	1299.454102
7526.504012	0.084902	0.230403	1377.564209
7526.504901	0.084888	0.230403	1453.029419
7526.505831	0.084939	0.230403	1532.022705
7526.506728	0.084818	0.230403	1608.104492
7526.507619	0.084950	0.230403	1683.794922
7526.508555	0.084910	0.230403	1763.270386
7526.509456	0.084906	0.230403	1839.770752
7526.510381	0.084880	0.230403	1918.285156
7527.522265	1.180876	0.206906	531.394409
7527.523166	0.678014	0.206906	1142.284912
7527.524077	0.087854	0.206906	1222.319946
7527.525004	0.084968	0.206906	1301.085571
7527.525908	0.084873	0.206906	1377.810791
7527.526805	0.084906	0.206906	1453.971436
7527.527736	0.084987	0.206906	1533.093994
7527.528639	0.084994	0.206906	1609.843506
7527.529538	0.084928	0.206906	1686.193726
7527.530430	0.084924	0.206906	1761.946167
7527.531371	0.084899	0.206906	1841.835815
7527.532270	0.084928	0.206906	1918.186035
7528.563684	1.183030	0.232779	539.461548
7528.564623	0.607310	0.232779	1109.725220
7528.565521	0.086774	0.232779	1187.647949
7528.566473	0.084877	0.232779	1268.450562
7528.567400	0.084884	0.232779	1347.138062
7528.568314	0.084877	0.232779	1424.715332
7528.569201	0.084888	0.232779	1500.010742
7528.570144	0.084836	0.232779	1580.011475
7528.571083	0.084840	0.232779	1659.676270
7528.571977	0.084880	0.232779	1735.559326
7528.572896	0.084814	0.232779	1813.503784
7528.573833	0.084921	0.232779	1893.074463
7529.594358	1.179730	0.206672	569.809753
7529.595288	0.569795	0.206672	1099.718994
7529.596198	0.086184	0.206672	1178.146484
7529.597092	0.084858	0.206672	1254.009888
7529.598020	0.085005	0.206672	1332.894409
7529.598938	0.084884	0.206672	1410.817993
7529.599847	0.084844	0.206672	1487.940918
7529.600737	0.084924	0.206672	1563.523560
7529.601690	0.084932	0.206672	1644.463379
7529.602591	0.084836	0.206672	1720.901001
7529.603482	0.084957	0.206672	1796.597900
7529.604417	0.084888	0.206672	1875.967896
7530.627065	1.190727	0.234560	565.595520
7530.628005	0.589164	0.234560	1119.409424
7530.628895	0.086525	0.234560	1196.416382
7530.629810	0.084803	0.234560	1274.011597
7530.630740	0.084921	0.234560	1352.987793
7530.631657	0.084976	0.234560	1430.910400
7530.632549	0.084895	0.234560	1506.636719
7530.633482	0.084939	0.234560	1585.884766
7530.634404	0.085034	0.234560	1664.286255
7530.635325	0.084957	0.234560	1742.531860
7530.636214	0.084855	0.234560	1817.967773
7530.637151	0.084913	0.234560	1897.531616
7531.666387	1.165181	0.206003	518.505432
7531.667287	0.691472	0.206003	1140.830322
7531.668174	0.088132	0.206003	1219.003662
7531.669135	0.084825	0.206003	1300.520874
7531.670057	0.084891	0.206003	1378.790649
7531.670952	0.084899	0.206003	1454.775024
7531.671882	0.084961	0.206003	1533.788696
7531.672799	0.084877	0.206003	1611.620605
7531.673721	0.084917	0.206003	1689.914062
7531.674609	0.084935	0.206003	1765.336670
7531.675569	0.084943	0.206003	1846.881592
7531.676471	0.084935	0.206003	1923.493286
7532.690903	1.176299	0.235535	519.924072
7532.691831	0.645355	0.235535	1118.813721
7532.692728	0.087092	0.235535	1196.935547
7532.693655	0.084873	0.235535	1275.612793
7532.694572	0.084924	0.235535	1353.488403
7532.695478	0.084858	0.235535	1430.370117
7532.696380	0.084910	0.235535	1506.958618
7532.697322	0.085027	0.235535	1587.053955
7532.698226	0.084961	0.235535	1663.858643
7532.699124	0.084987	0.235535	1740.176636
7532.700011	0.084950	0.235535	1815.527222
7532.700945	0.085023	0.235535	1894.938843
7533.736939	1.204922	0.206809	554.264038
7533.737888	0.577939	0.206809	1102.728516
7533.738780	0.086587	0.206809	1179.963989
7533.739734	0.084858	0.206809	1260.918945
7533.740672	0.084833	0.206809	1340.492065
7533.741564	0.084910	0.206809	1416.231445
7533.742480	0.084825	0.206809	1493.931519
7533.743407	0.084836	0.206809	1572.574829
7533.744320	0.084884	0.206809	1650.073975
7533.745222	0.084946	0.206809	1726.695557
7533.746167	0.084869	0.206809	1806.897095
7533.747094	0.084866	0.206809	1885.567627
7534.755816	1.172384	0.233392	548.675720
7534.756729	0.624199	0.233392	1118.569580
7534.757659	0.086927	0.233392	1199.412109
7534.758590	0.084862	0.233392	1278.418701
7534.759492	0.084891	0.233392	1354.990723
7534.760382	0.084924	0.233392	1430.573364
7534.761327	0.084906	0.233392	1510.809570
7534.762247	0.084792	0.233392	1588.818604
7534.763172	0.084862	0.233392	1667.316040
7534.764062	0.084877	0.233392	1742.856323
7534.765022	0.084965	0.233392	1824.422363
7534.765916	0.084869	0.233392	1900.295654
7535.806408	1.161020	0.208577	506.204895
7535.807362	0.621614	0.208577	1099.224365
7535.808277	0.086675	0.208577	1178.531860
7535.809179	0.084781	0.208577	1255.004761
7535.810107	0.084902	0.208577	1333.794189
7535.811015	0.084946	0.208577	1410.925415
7535.811922	0.084862	0.208577	1487.895264
7535.812816	0.084935	0.208577	1563.827393
7535.813765	0.084954	0.208577	1644.448364
7535.814671	0.084888	0.208577	1721.356567
7535.815575	0.084932	0.208577	1798.134766
7535.816463	0.084946	0.208577	1873.567017
7536.822778	1.193082	0.231265	570.293274
7536.823691	0.608719	0.231265	1126.054199
7536.824577	0.086968	0.231265	1203.107666
7536.825534	0.084895	0.231265	1284.352173
7536.826467	0.084910	0.231265	1363.572876
7536.827365	0.084866	0.231265	1439.782349
7536.828282	0.084924	0.231265	1517.657959
7536.829199	0.084833	0.231265	1595.449585
7536.830136	0.084910	0.231265	1675.010010
7536.831032	0.085005	0.231265	1751.174438
7536.831963	0.084917	0.231265	1830.232178
7536.832894	0.084906	0.231265	1909.279663
7537.874911	1.191021	0.209911	545.487427
7537.875809	0.668474	0.209911	1145.777222
7537.876758	0.087312	0.209911	1228.636353
7537.877661	0.084862	0.209911	1305.266846
7537.878560	0.084939	0.209911	1381.626953
7537.879449	0.084913	0.209911	1457.114868
7537.880378	0.085049	0.209911	1536.125244
7537.881286	0.084924	0.209911	1613.236572
7537.882184	0.084888	0.209911	1689.465698
7537.883101	0.084869	0.209911	1767.290894
7537.884013	0.084943	0.209911	1844.758545
7537.884923	0.084891	0.209911	1922.009644
7538.889694	1.181158	0.229951	540.970581
7538.890607	0.643502	0.229951	1128.488037
7538.891496	0.087378	0.229951	1206.166992
7538.892454	0.084917	0.229951	1287.517456
7538.893392	0.084913	0.229951	1367.166138
7538.894288	0.084950	0.229951	1443.281250
7538.895208	0.084899	0.229951	1521.388062
7538.896157	0.084943	0.229951	1601.998657
7538.897081	0.084950	0.229951	1680.492432
7538.897968	0.084939	0.229951	1755.833252
7538.898904	0.084921	0.229951	1835.318970
7538.899831	0.084917	0.229951	1914.036987
7539.942861	1.161061	0.213629	510.866760
7539.943838	0.573083	0.213629	1070.769287
7539.944747	0.086316	0.213629	1149.230469
7539.945642	0.084855	0.213629	1225.175415
7539.946530	0.084913	0.213629	1300.578491
7539.947460	0.084954	0.213629	1379.585327
7539.948372	0.084906	0.213629	1457.019653
7539.949264	0.084902	0.213629	1532.752563
7539.950199	0.084965	0.213629	1612.194458
7539.951115	0.084869	0.213629	1689.934814
7539.952020	0.084899	0.213629	1766.768066
7539.952909	0.084917	0.213629	1842.259277
7540.957152	1.178141	0.226938	532.519653
7540.958049	0.677567	0.226938	1140.297363
7540.958986	0.087576	0.226938	1222.355713
7540.959913	0.084943	0.226938	1301.097534
7540.960835	0.084994	0.226938	1379.461914
7540.961728	0.084917	0.226938	1455.292725
7540.962666	0.084932	0.226938	1534.958618
7540.963606	0.084884	0.226938	1614.749634
7540.964509	0.084946	0.226938	1691.456177
7540.965421	0.084899	0.226938	1768.883789
7540.966359	0.084906	0.226938	1848.525635
7540.967277	0.084891	0.226938	1926.455933
7542.009821	1.171359	0.215780	523.597290
7542.010713	0.680361	0.215780	1130.479614
7542.011673	0.087045	0.215780	1214.042480
7542.012596	0.084895	0.215780	1292.400635
7542.013484	0.084943	0.215780	1367.829712
7542.014403	0.084943	0.215780	1445.891968
7542.015344	0.084932	0.215780	1525.812622
7542.016268	0.084987	0.215780	1604.340210
7542.017165	0.084884	0.215780	1680.481201
7542.018119	0.084840	0.215780	1761.418701
7542.019053	0.084855	0.215780	1840.672974
7542.019954	0.084928	0.215780	1917.193115
7543.026683	1.208719	0.227651	588.646362
7543.027628	0.550789	0.227651	1109.141602
7543.028531	0.086115	0.227651	1186.902954
7543.029420	0.084825	0.227651	1262.312744
7543.030362	0.084994	0.227651	1342.376953
7543.031265	0.084888	0.227651	1419.030518
7543.032154	0.084862	0.227651	1494.472900
7543.033082	0.084961	0.227651	1573.316650
7543.033985	0.084998	0.227651	1650.069458
7543.034896	0.084910	0.227651	1727.422119
7543.035787	0.084983	0.227651	1803.141846
7543.036715	0.084939	0.227651	1881.965210
7544.076775	1.187131	0.216271	556.764587
7544.077680	0.644377	0.216271	1139.926147
7544.078608	0.086847	0.216271	1220.520142
7544.079541	0.084785	0.216271	1299.624756
7544.080468	0.084825	0.216271	1378.257935
7544.081369	0.084807	0.216271	1454.669189
7544.082323	0.084767	0.216271	1535.536743
7544.083251	0.084858	0.216271	1614.285400
7544.084146	0.084899	0.216271	1690.269775
7544.085067	0.084771	0.216271	1768.343384
7544.086010	0.084844	0.216271	1848.351074
7544.086925	0.084935	0.216271	1926.066895
7545.095139	1.185641	0.225923	540.652222
7545.096038	0.668628	0.225923	1141.748779
7545.096951	0.087708	0.225923	1221.825684
7545.097893	0.084836	0.225923	1301.741577
7545.098822	0.084869	0.225923	1380.585205
7545.099722	0.084932	0.225923	1457.023682
7545.100653	0.084913	0.225923	1536.078003
7545.101572	0.084899	0.225923	1614.099854
7545.102493	0.084950	0.225923	1692.338745
7545.103381	0.084910	0.225923	1767.738525
7545.104342	0.084921	0.225923	1849.347290
7545.105263	0.084932	0.225923	1927.569336
7546.143701	1.173955	0.217198	521.236084
7546.144605	0.680072	0.217198	1136.021240
7546.145501	0.087880	0.217198	1214.761353
7546.146463	0.084935	0.217198	1296.469116
7546.147378	0.084877	0.217198	1374.131348
7546.148278	0.084891	0.217198	1450.533569
7546.149213	0.085023	0.217198	1530.030273
7546.150118	0.084990	0.217198	1606.946411
7546.151022	0.084895	0.217198	1683.691528
7546.151911	0.084902	0.217198	1759.169678
7546.152847	0.084990	0.217198	1838.720581
7546.153755	0.084972	0.217198	1915.875122
7547.162591	1.178368	0.226229	530.265564
7547.163497	0.664559	0.226229	1132.356323
7547.164432	0.087129	0.226229	1213.821899
7547.165375	0.084818	0.226229	1293.805420
7547.166299	0.084965	0.226229	1372.312744
7547.167192	0.084935	0.226229	1448.159912
7547.168107	0.084873	0.226229	1525.818726
7547.169036	0.084891	0.226229	1604.682739
7547.169953	0.084965	0.226229	1682.595215
7547.170847	0.084968	0.226229	1758.556885
7547.171796	0.084888	0.226229	1839.115356
7547.172729	0.084902	0.226229	1918.329224
7548.212172	1.160636	0.215643	510.679810
7548.213064	0.697244	0.215643	1132.621094
7548.214032	0.086843	0.215643	1216.685425
7548.214954	0.084836	0.215643	1294.904663
7548.215851	0.084906	0.215643	1371.065308
7548.216773	0.084954	0.215643	1449.392578
7548.217690	0.084800	0.215643	1527.154053
7548.218606	0.084899	0.215643	1604.921265
7548.219498	0.084880	0.215643	1680.634521
7548.220435	0.084888	0.215643	1760.174316
7548.221347	0.084858	0.215643	1837.565186
7548.222271	0.084917	0.215643	1916.028442
7549.231048	1.155088	0.226117	502.463196
7549.231982	0.682343	0.226117	1139.771118
7549.232899	0.086777	0.226117	1219.345947
7549.233809	0.084745	0.226117	1296.463745
7549.234708	0.084884	0.226117	1372.774536
7549.235640	0.084855	0.226117	1451.859131
7549.236544	0.084884	0.226117	1528.594238
7549.237446	0.084895	0.226117	1605.169556
7549.238333	0.084943	0.226117	1680.513672
7549.239283	0.084998	0.226117	1761.261353
7549.240178	0.084902	0.226117	1837.248901
7549.241077	0.084884	0.226117	1913.559692
7550.278620	1.174673	0.218588	533.301453
7550.279524	0.664457	0.218588	1133.970459
7550.280458	0.087535	0.218588	1215.728516
7550.281401	0.084833	0.218588	1295.725830
7550.282316	0.084858	0.218588	1373.371216
7550.283207	0.084866	0.218588	1448.986572
7550.284141	0.084891	0.218588	1528.275146
7550.285066	0.084877	0.218588	1606.786133
7550.286001	0.084869	0.218588	1686.139038
7550.286896	0.084844	0.218588	1762.074219
7550.287813	0.084836	0.218588	1839.869263
7550.288749	0.084851	0.218588	1919.289917
7551.298506	1.158292	0.224517	506.173676
7551.299465	0.642762	0.224517	1122.582886
7551.300389	0.086730	0.224517	1202.721191
7551.301312	0.084899	0.224517	1281.082642
7551.302197	0.084965	0.224517	1356.276367
7551.303132	0.084935	0.224517	1435.690918
7551.304042	0.084873	0.224517	1512.925415
7551.304963	0.084968	0.224517	1591.181152
7551.305851	0.084957	0.224517	1666.623169
7551.306802	0.084917	0.224517	1747.379272
7551.307700	0.084972	0.224517	1823.684082
7551.308594	0.084968	0.224517	1899.645752
7552.348113	1.179749	0.217851	523.808350
7552.349087	0.579199	0.217851	1087.948364
7552.350001	0.086415	0.217851	1166.931519
7552.350892	0.084895	0.217851	1242.572998
7552.351830	0.084950	0.217851	1322.256104
7552.352740	0.084990	0.217851	1399.597168
7552.353644	0.084906	0.217851	1476.352173
7552.354535	0.084913	0.217851	1552.010010
7552.355475	0.085001	0.217851	1631.911133
7552.356383	0.084976	0.217851	1709.068970
7552.357292	0.084954	0.217851	1786.291748
7552.358181	0.084928	0.217851	1861.792725
7553.365961	1.163262	0.226346	509.508606
7553.366905	0.626744	0.226346	1101.155273
7553.367868	0.086213	0.226346	1184.178711
7553.368781	0.084910	0.226346	1261.701294
7553.369669	0.084950	0.226346	1337.136841
7553.370614	0.084833	0.226346	1417.303833
7553.371547	0.084862	0.226346	1496.480103
7553.372449	0.084906	0.226346	1573.065308
7553.373377	0.084954	0.226346	1651.902222
7553.374315	0.084935	0.226346	1731.571533
7553.375236	0.084935	0.226346	1809.796997
7553.376135	0.084950	0.226346	1886.166992
7554.416094	1.181697	0.216747	530.581848
7554.417004	0.661619	0.216747	1132.654785
7554.417891	0.087583	0.216747	1210.340942
7554.418843	0.084939	0.216747	1291.202881
7554.419750	0.084906	0.216747	1368.212646
7554.420652	0.084873	0.216747	1444.768188
7554.421543	0.084833	0.216747	1520.354126
7554.422492	0.084895	0.216747	1600.919434
7554.423401	0.084877	0.216747	1678.072388
7554.424294	0.084910	0.216747	1753.896729
7554.425208	0.084935	0.216747	1831.527588
7554.426127	0.084924	0.216747	1909.572998
7555.433426	1.169601	0.228159	521.641968
7555.434389	0.618391	0.228159	1117.152588
7555.435317	0.086276	0.228159	1197.216431
7555.436206	0.084877	0.228159	1272.671875
7555.437124	0.084866	0.228159	1350.578613
7555.438063	0.084906	0.228159	1430.305298
7555.438997	0.084921	0.228159	1509.621216
7555.439892	0.084910	0.228159	1585.615356
7555.440831	0.084983	0.228159	1665.414307
7555.441763	0.084880	0.228159	1744.522827
7555.442683	0.084913	0.228159	1822.643066
7555.443574	0.084891	0.228159	1898.281250
7556.484585	1.177786	0.215389	550.025879
7556.485499	0.625060	0.215389	1121.330566
7556.486437	0.087063	0.215389	1202.995605
7556.487388	0.084877	0.215389	1283.713379
7556.488303	0.084961	0.215389	1361.452637
7556.489192	0.084994	0.215389	1437.012207
7556.490136	0.084855	0.215389	1517.115112
7556.491077	0.084921	0.215389	1597.025391
7556.491978	0.084946	0.215389	1673.562012
7556.492892	0.084906	0.215389	1751.166138
7556.493820	0.084913	0.215389	1829.965698
7556.494749	0.084888	0.215389	1908.826416
7557.499860	1.160317	0.229940	515.180908
7557.500763	0.686576	0.229940	1135.158936
7557.501706	0.087920	0.229940	1218.067383
7557.502612	0.084910	0.229940	1294.995605
7557.503510	0.084902	0.229940	1371.237915
7557.504399	0.084954	0.229940	1446.761719
7557.505329	0.084983	0.229940	1525.795776
7557.506242	0.084895	0.229940	1603.304932
7557.507143	0.084895	0.229940	1679.795288
7557.508031	0.084891	0.229940	1755.178833
7557.508979	0.084954	0.229940	1835.714844
7557.509886	0.084902	0.229940	1912.721313
7558.552532	1.166422	0.214350	517.891418
7558.553428	0.688114	0.214350	1134.441528
7558.554391	0.086953	0.214350	1218.177368
7558.555332	0.084891	0.214350	1298.060181
7558.556233	0.084954	0.214350	1374.603394
7558.557156	0.084939	0.214350	1453.002075
7558.558092	0.084961	0.214350	1532.525513
7558.559003	0.084943	0.214350	1609.908203
7558.559901	0.084836	0.214350	1686.091309
7558.560825	0.084965	0.214350	1764.598633
7558.561761	0.084862	0.214350	1844.029541
7558.562684	0.084917	0.214350	1922.407959
7559.568329	1.164712	0.232070	512.473267
7559.569224	0.685858	0.232070	1126.316284
7559.570198	0.086708	0.232070	1210.769653
7559.571138	0.084858	0.232070	1290.536499
7559.572040	0.084939	0.232070	1367.151489
7559.572959	0.084961	0.232070	1445.230591
7559.573898	0.084891	0.232070	1524.943604
7559.574817	0.084869	0.232070	1602.938599
7559.575704	0.084917	0.232070	1678.260010
7559.576652	0.084913	0.232070	1758.757812
7559.577590	0.084943	0.232070	1838.433960
7559.578487	0.084987	0.232070	1914.666870
7560.620494	1.162581	0.213202	509.210297
7560.621391	0.693047	0.213202	1130.873291
7560.622361	0.086873	0.213202	1215.139648
7560.623253	0.084899	0.213202	1290.869263
7560.624143	0.084935	0.213202	1366.461670
7560.625074	0.084884	0.213202	1445.488647
7560.625991	0.084950	0.213202	1523.387695
7560.626892	0.084939	0.213202	1599.917725
7560.627777	0.084888	0.213202	1675.043335
7560.628715	0.084943	0.213202	1754.719482
7560.629628	0.084884	0.213202	1832.218628
7560.630543	0.084943	0.213202	1909.941162
7561.635812	1.192877	0.233754	548.723511
7561.636716	0.658286	0.233754	1143.814209
7561.637664	0.087246	0.233754	1226.523560
7561.638564	0.084954	0.233754	1302.981812
7561.639459	0.084884	0.233754	1378.953003
7561.640349	0.084895	0.233754	1454.509521
7561.641281	0.084968	0.233754	1533.699951
7561.642193	0.084990	0.233754	1611.211060
7561.643086	0.084932	0.233754	1687.055054
7561.643987	0.084943	0.233754	1763.588379
7561.644914	0.084983	0.233754	1842.367554
7561.645823	0.084939	0.233754	1919.577026
7562.686955	1.208024	0.212392	562.939026
7562.687902	0.572501	0.212392	1105.097656
7562.688796	0.086470	0.212392	1182.401611
7562.689720	0.084836	0.212392	1260.790527
7562.690668	0.084899	0.212392	1341.274414
7562.691580	0.084961	0.212392	1418.758789
7562.692470	0.084895	0.212392	1494.315308
7562.693421	0.084924	0.212392	1575.078369
7562.694350	0.084950	0.212392	1653.996826
7562.695239	0.084961	0.212392	1729.527100
7562.696167	0.084910	0.212392	1808.323242
7562.697091	0.084891	0.212392	1886.762817
7563.705344	1.192698	0.235744	588.000000
7563.706261	0.584484	0.235744	1123.971436
7563.707175	0.086301	0.235744	1202.850830
7563.708070	0.084906	0.235744	1278.841675
7563.709022	0.084877	0.235744	1359.644287
7563.709924	0.084917	0.235744	1436.239380
7563.710841	0.084873	0.235744	1514.067993
7563.711728	0.084939	0.235744	1589.408813
7563.712686	0.084884	0.235744	1670.727661
7563.713600	0.084913	0.235744	1748.338501
7563.714492	0.084994	0.235744	1824.153076
7563.715430	0.084855	0.235744	1903.746826
7564.753347	1.155084	0.209947	502.461639
7564.754322	0.652965	0.209947	1139.102539
7564.755227	0.086536	0.209947	1217.417236
7564.756120	0.084899	0.209947	1293.231812
7564.757011	0.084873	0.209947	1368.853638
7564.757960	0.084910	0.209947	1449.432861
7564.758869	0.084858	0.209947	1526.569092
7564.759771	0.084917	0.209947	1603.164185
7564.760661	0.084950	0.209947	1678.769653
7564.761604	0.084979	0.209947	1758.905029
7564.762507	0.084844	0.209947	1835.518921
7564.763397	0.084913	0.209947	1911.091797
7565.774299	1.183030	0.235901	529.997314
7565.775226	0.638961	0.235901	1122.314331
7565.776127	0.087041	0.235901	1200.738281
7565.777051	0.084906	0.235901	1279.191406
7565.777963	0.084994	0.235901	1356.705811
7565.778865	0.084880	0.235901	1433.267944
7565.779760	0.084888	0.235901	1509.242432
7565.780681	0.085009	0.235901	1587.535278
7565.781583	0.085023	0.235901	1664.226196
7565.782484	0.084924	0.235901	1740.743042
7565.783373	0.084902	0.235901	1816.221191
7565.784330	0.084972	0.235901	1897.539307
7566.818250	1.172801	0.210289	518.378235
7566.819223	0.577826	0.210289	1080.602783
7566.820145	0.086122	0.210289	1160.007080
7566.821073	0.084910	0.210289	1238.803223
7566.821970	0.084935	0.210289	1314.990234
7566.822926	0.084957	0.210289	1396.209351
7566.823861	0.084913	0.210289	1475.603271
7566.824765	0.084983	0.210289	1552.427856
7566.825677	0.084935	0.210289	1629.888916
7566.826606	0.084888	0.210289	1708.749634
7566.827523	0.084972	0.210289	1786.668945
7566.828415	0.084928	0.210289	1862.424683
7567.845333	1.178749	0.236699	531.615723
7567.846236	0.676520	0.236699	1142.513062
7567.847126	0.087854	0.236699	1220.703125
7567.848092	0.084917	0.236699	1302.732910
7567.848998	0.084954	0.236699	1379.700928
7567.849926	0.085031	0.236699	1458.609253
7567.850823	0.084983	0.236699	1534.838867
7567.851765	0.084965	0.236699	1614.875488
7567.852670	0.084943	0.236699	1691.748535
7567.853559	0.084968	0.236699	1767.285278
7567.854489	0.085005	0.236699	1846.339844
7567.855394	0.084957	0.236699	1923.226196
7568.882636	1.160021	0.210459	505.769043
7568.883577	0.649512	0.210459	1116.959473
7568.884488	0.087056	0.210459	1196.267212
7568.885389	0.084873	0.210459	1272.737793
7568.886278	0.084917	0.210459	1348.229004
7568.887211	0.084968	0.210459	1427.504395
7568.888115	0.084902	0.210459	1504.256104
7568.889017	0.084902	0.210459	1580.838013
7568.889920	0.084895	0.210459	1657.498169
7568.890851	0.085027	0.210459	1736.658203
7568.891757	0.084979	0.210459	1813.649414
7568.892654	0.084891	0.210459	1889.796997
7569.916923	1.216904	0.235644	584.114075
7569.917825	0.620409	0.235644	1143.722900
7569.918760	0.086620	0.235644	1224.712524
7569.919697	0.084873	0.235644	1304.238525
7569.920613	0.084932	0.235644	1382.035889
7569.921513	0.084939	0.235644	1458.480957
7569.922466	0.084943	0.235644	1539.431274
7569.923411	0.084851	0.235644	1619.615479
7569.924309	0.084935	0.235644	1695.887329
7569.925231	0.084943	0.235644	1774.204468
7569.926165	0.084957	0.235644	1853.554565
7569.927084	0.084935	0.235644	1931.610107
7570.946512	1.159823	0.212074	506.842621
7570.947449	0.670697	0.212074	1135.285767
7570.948364	0.087081	0.212074	1214.965210
7570.949282	0.084800	0.212074	1292.811401
7570.950171	0.084844	0.212074	1368.237549
7570.951115	0.084902	0.212074	1448.385376
7570.952022	0.084888	0.212074	1525.378540
7570.952949	0.084902	0.212074	1604.083008
7570.953844	0.084943	0.212074	1680.106689
7570.954796	0.084899	0.212074	1760.930176
7570.955695	0.084880	0.212074	1837.237671
7570.956584	0.084954	0.212074	1912.761475
7571.988936	1.160625	0.233658	507.193115
7571.989912	0.629454	0.233658	1121.540527
7571.990819	0.086418	0.233658	1199.922119
7571.991715	0.084895	0.233658	1275.988037
7571.992606	0.084891	0.233658	1351.626221
7571.993533	0.084935	0.233658	1430.361206
7571.994433	0.084939	0.233658	1506.806274
7571.995335	0.084855	0.233658	1583.345215
7571.996225	0.084950	0.233658	1658.950684
7571.997170	0.085020	0.233658	1739.294189
7571.998080	0.084844	0.233658	1816.501953
7571.998971	0.084935	0.233658	1892.179321
7573.010391	1.163848	0.213677	515.584534
7573.011288	0.688330	0.213677	1133.016602
7573.012234	0.087070	0.213677	1215.385132
7573.013165	0.084866	0.213677	1294.395142
7573.014064	0.084935	0.213677	1370.751953
7573.014984	0.084906	0.213677	1448.865479
7573.015922	0.084851	0.213677	1528.455811
7573.016846	0.084825	0.213677	1606.834473
7573.017766	0.084906	0.213677	1684.947998
7573.018657	0.084968	0.213677	1760.654663
7573.019598	0.084891	0.213677	1840.537476
7573.020532	0.084928	0.213677	1919.860229
7574.061094	1.243367	0.232123	661.471008
7574.062007	0.532233	0.232123	1147.399414
7574.062925	0.085822	0.232123	1226.183594
7574.063813	0.084950	0.232123	1301.619141
7574.064744	0.084899	0.232123	1380.659790
7574.065667	0.084902	0.232123	1459.024658
7574.066560	0.084968	0.232123	1534.901367
7574.067479	0.084880	0.232123	1612.906494
7574.068410	0.084924	0.232123	1691.971069
7574.069328	0.084880	0.232123	1769.891235
7574.070222	0.084987	0.232123	1845.869263
7574.071165	0.084961	0.232123	1925.987427
7575.074773	1.166378	0.216493	519.038269
7575.075667	0.696196	0.216493	1141.437744
7575.076626	0.086462	0.216493	1224.355225
7575.077537	0.084858	0.216493	1301.661255
7575.078428	0.084884	0.216493	1377.292969
7575.079341	0.084891	0.216493	1454.798828
7575.080259	0.084983	0.216493	1532.813110
7575.081167	0.084891	0.216493	1609.894409
7575.082068	0.084928	0.216493	1686.414551
7575.083003	0.084884	0.216493	1765.781128
7575.083903	0.084935	0.216493	1842.222900
7575.084805	0.084932	0.216493	1918.831299
7576.131568	1.197316	0.228904	568.724976
7576.132518	0.556300	0.228904	1097.209961
7576.133446	0.085873	0.228904	1176.899902
7576.134336	0.084910	0.228904	1252.469482
7576.135267	0.084910	0.228904	1331.520386
7576.136211	0.084884	0.228904	1411.650879
7576.137124	0.084957	0.228904	1489.216919
7576.138010	0.084858	0.228904	1564.401489
7576.138947	0.084891	0.228904	1643.944702
7576.139873	0.084877	0.228904	1722.540527
7576.140776	0.084924	0.228904	1799.227173
7576.141696	0.084880	0.228904	1877.317139
7577.139667	1.170469	0.218435	520.858643
7577.140644	0.571776	0.218435	1079.483887
7577.141536	0.086440	0.218435	1156.588745
7577.142429	0.084847	0.218435	1232.357422
7577.143354	0.084917	0.218435	1310.905640
7577.144271	0.084814	0.218435	1388.680542
7577.145184	0.084869	0.218435	1466.166260
7577.146079	0.084924	0.218435	1542.173584
7577.147013	0.084902	0.218435	1621.472412
7577.147917	0.084932	0.218435	1698.250610
7577.148844	0.084899	0.218435	1776.951660
7577.149732	0.084939	0.218435	1852.377441
7578.202054	1.157073	0.227140	503.326660
7578.203041	0.581199	0.227140	1076.969727
7578.203943	0.086393	0.227140	1154.895996
7578.204845	0.085009	0.227140	1231.573730
7578.205773	0.084924	0.227140	1310.383545
7578.206680	0.084950	0.227140	1387.433105
7578.207595	0.084877	0.227140	1465.095337
7578.208501	0.084935	0.227140	1542.046753
7578.209443	0.085027	0.227140	1622.142090
7578.210347	0.084990	0.227140	1698.973267
7578.211244	0.084983	0.227140	1775.202881
7578.212132	0.084910	0.227140	1850.602661
7579.205602	1.182202	0.221424	537.901978
7579.206540	0.614923	0.221424	1114.699829
7579.207428	0.086873	0.221424	1191.842651
7579.208372	0.084910	0.221424	1271.997437
7579.209303	0.084888	0.221424	1351.027832
7579.210201	0.084976	0.221424	1427.335937
7579.211117	0.084866	0.221424	1505.072998
7579.212053	0.084928	0.221424	1584.565552
7579.212972	0.084906	0.221424	1662.594116
7579.213867	0.084902	0.221424	1738.581665
7579.214819	0.084928	0.221424	1819.433105
7579.215750	0.084888	0.221424	1898.463501
7580.271568	1.167660	0.225524	517.273315
7580.272465	0.692380	0.225524	1138.338501
7580.273419	0.087242	0.225524	1221.567749
7580.274329	0.084906	0.225524	1298.832275
7580.275251	0.084902	0.225524	1377.112183
7580.276140	0.084924	0.225524	1452.609863
7580.277087	0.084972	0.225524	1533.078247
7580.277982	0.084976	0.225524	1609.131348
7580.278873	0.084972	0.225524	1684.841309
7580.279810	0.085042	0.225524	1764.525146
7580.280731	0.084891	0.225524	1842.710083
7580.281638	0.084946	0.225524	1919.756348
7581.272040	1.187959	0.222588	552.400940
7581.272973	0.600919	0.222588	1113.058594
7581.273900	0.086364	0.222588	1193.117554
7581.274790	0.085001	0.222588	1268.768677
7581.275741	0.084950	0.222588	1349.556030
7581.276674	0.084998	0.222588	1428.858765
7581.277573	0.084998	0.222588	1505.271606
7581.278520	0.084998	0.222588	1585.764282
7581.279416	0.085063	0.222588	1661.981201
7581.280313	0.085027	0.222588	1738.250244
7581.281212	0.084994	0.222588	1814.659790
7581.282138	0.085063	0.222588	1893.428589
7582.339539	1.171373	0.224046	518.918335
7582.340432	0.694794	0.224046	1139.369141
7582.341395	0.086990	0.224046	1223.140259
7582.342333	0.084972	0.224046	1302.843872
7582.343262	0.084946	0.224046	1381.759033
7582.344154	0.084928	0.224046	1457.514771
7582.345087	0.084946	0.224046	1536.769653
7582.346020	0.084855	0.224046	1615.939087
7582.346917	0.085042	0.224046	1692.221313
7582.347836	0.084943	0.224046	1770.283569
7582.348771	0.084932	0.224046	1849.694702
7582.349682	0.085027	0.224046	1927.154175
7583.339461	1.157695	0.223136	507.070526
7583.340417	0.606207	0.223136	1086.604614
7583.341324	0.086711	0.223136	1165.251831
7583.342214	0.084866	0.223136	1240.782349
7583.343141	0.084972	0.223136	1319.551270
7583.344051	0.084921	0.223136	1396.829102
7583.344967	0.085034	0.223136	1474.720459
7583.345856	0.084946	0.223136	1550.237671
7583.346813	0.084990	0.223136	1631.573364
7583.347710	0.084913	0.223136	1707.740601
7583.348627	0.084961	0.223136	1785.649780
7583.349511	0.084932	0.223136	1860.729370
7584.408016	1.169590	0.223631	520.467468
7584.408983	0.580324	0.223631	1081.640381
7584.409891	0.086389	0.223631	1160.081787
7584.410795	0.084910	0.223631	1236.840088
7584.411691	0.084902	0.223631	1312.912598
7584.412626	0.085078	0.223631	1392.460693
7584.413542	0.084917	0.223631	1470.244629
7584.414433	0.084987	0.223631	1545.967651
7584.415379	0.085078	0.223631	1626.451538
7584.416281	0.085045	0.223631	1703.162231
7584.417177	0.084924	0.223631	1779.254395
7584.418068	0.084884	0.223631	1854.886108
7585.406925	1.166935	0.222588	512.284424
7585.407900	0.586432	0.222588	1084.055542
7585.408820	0.086305	0.222588	1163.456055
7585.409715	0.084913	0.222588	1239.453491
7585.410639	0.084899	0.222588	1317.899902
7585.411586	0.084965	0.222588	1398.361328
7585.412490	0.084954	0.222588	1475.159424
7585.413386	0.084880	0.222588	1551.212280
7585.414326	0.084888	0.222588	1631.006714
7585.415276	0.084910	0.222588	1711.670898
7585.416176	0.084954	0.222588	1788.129150
7585.417095	0.084939	0.222588	1866.188110
7586.474962	1.162646	0.225468	508.076477
7586.475860	0.694303	0.225468	1131.560547
7586.476822	0.086616	0.225468	1214.885376
7586.477737	0.084913	0.225468	1292.581055
7586.478632	0.085023	0.225468	1368.676758
7586.479581	0.084987	0.225468	1449.328979
7586.480489	0.085023	0.225468	1526.530029
7586.481415	0.084965	0.225468	1605.207275
7586.482309	0.084913	0.225468	1681.119751
7586.483252	0.084987	0.225468	1761.262085
7586.484166	0.084957	0.225468	1838.913086
7586.485087	0.084917	0.225468	1917.121582
7587.475925	1.171578	0.224118	517.837646
7587.476837	0.672949	0.224118	1131.567383
7587.477726	0.087861	0.224118	1209.676147
7587.478687	0.085045	0.224118	1291.404541
7587.479584	0.084983	0.224118	1367.634155
7587.480478	0.085045	0.224118	1443.664551
7587.481372	0.084976	0.224118	1519.632690
7587.482319	0.085016	0.224118	1600.142700
7587.483231	0.084968	0.224118	1677.633789
7587.484135	0.085056	0.224118	1754.524536
7587.485061	0.085063	0.224118	1833.293335
7587.485959	0.085009	0.224118	1909.630981
7588.542428	1.181283	0.226028	531.577332
7588.543338	0.665317	0.226028	1137.016113
7588.544222	0.087722	0.226028	1214.562500
7588.545175	0.085009	0.226028	1295.575684
7588.546084	0.085042	0.226028	1372.878418
7588.546982	0.084998	0.226028	1449.206177
7588.547871	0.085027	0.226028	1524.795044
7588.548817	0.085096	0.226028	1605.296265
7588.549722	0.084950	0.226028	1682.176025
7588.550623	0.084965	0.226028	1758.729126
7588.551557	0.085067	0.226028	1838.181885
7588.552454	0.085042	0.226028	1914.464111
7589.544414	1.178628	0.222201	535.097046
7589.545317	0.659641	0.222201	1130.752930
7589.546254	0.087697	0.222201	1212.924561
7589.547199	0.085012	0.222201	1293.261108
7589.548118	0.084965	0.222201	1371.343628
7589.549016	0.085056	0.222201	1447.723999
7589.549958	0.085005	0.222201	1527.798584
7589.550882	0.084954	0.222201	1606.295776
7589.551821	0.084998	0.222201	1686.108521
7589.552710	0.084979	0.222201	1761.655029
7589.553636	0.084943	0.222201	1840.311890
7589.554566	0.084968	0.222201	1919.332397
7590.608890	1.196382	0.228171	581.441528
7590.609814	0.589146	0.228171	1125.812012
7590.610732	0.086213	0.228171	1204.955933
7590.611621	0.084961	0.228171	1280.486206
7590.612577	0.085034	0.228171	1361.778931
7590.613477	0.084910	0.228171	1438.197632
7590.614405	0.084990	0.228171	1517.068604
7590.615301	0.084998	0.228171	1593.226440
7590.616237	0.084888	0.228171	1672.681274
7590.617143	0.084979	0.228171	1749.672485
7590.618035	0.084899	0.228171	1825.402100
7590.618962	0.084913	0.228171	1904.116699
7591.613905	1.162189	0.219349	513.687378
7591.614877	0.586523	0.219349	1083.788086
7591.615774	0.086602	0.219349	1161.469727
7591.616675	0.084998	0.219349	1238.052490
7591.617563	0.084972	0.219349	1313.507568
7591.618514	0.085016	0.219349	1394.357666
7591.619427	0.084906	0.219349	1471.876831
7591.620325	0.084987	0.219349	1548.194824
7591.621253	0.085001	0.219349	1627.075928
7591.622162	0.084990	0.219349	1704.332031
7591.623065	0.084888	0.219349	1780.985596
7591.623951	0.084891	0.219349	1856.199341
7592.676350	1.181924	0.228038	576.778809
7592.677284	0.563060	0.228038	1102.677246
7592.678217	0.085792	0.228038	1182.721436
7592.679126	0.084891	0.228038	1259.887695
7592.680041	0.084891	0.228038	1337.563232
7592.680967	0.084866	0.228038	1416.148926
7592.681887	0.084917	0.228038	1494.272583
7592.682782	0.084869	0.228038	1570.230713
7592.683725	0.084983	0.228038	1650.369629
7592.684654	0.084891	0.228038	1729.233643
7592.685568	0.084884	0.228038	1806.817627
7592.686462	0.084950	0.228038	1882.762939
7593.683436	1.181829	0.216928	554.277649
7593.684343	0.633527	0.216928	1128.886230
7593.685282	0.087195	0.216928	1210.762207
7593.686187	0.084976	0.216928	1287.665161
7593.687104	0.084946	0.216928	1365.560913
7593.687992	0.084943	0.216928	1440.989990
7593.688940	0.084928	0.216928	1521.501709
7593.689849	0.084855	0.216928	1598.634644
7593.690773	0.084932	0.216928	1677.111450
7593.691662	0.084902	0.216928	1752.589600
7593.692610	0.084851	0.216928	1833.028442
7593.693516	0.084946	0.216928	1909.989746
7594.740165	1.151433	0.233082	496.267670
7594.741107	0.642869	0.233082	1101.849976
7594.742021	0.086891	0.233082	1181.268188
7594.742927	0.084961	0.233082	1258.242798
7594.743815	0.085023	0.233082	1333.743408
7594.744768	0.085012	0.233082	1414.760010
7594.745678	0.084917	0.233082	1492.034424
7594.746571	0.084979	0.233082	1567.920898
7594.747513	0.084998	0.233082	1647.988647
7594.748409	0.085104	0.233082	1724.241577
7594.749310	0.085001	0.233082	1800.827637
7594.750199	0.085009	0.233082	1876.400269
7595.753983	1.225620	0.215752	590.748840
7595.754925	0.562833	0.215752	1120.937744
7595.755815	0.086429	0.215752	1197.859985
7595.756739	0.084877	0.215752	1276.286011
7595.757672	0.084873	0.215752	1355.472534
7595.758590	0.085027	0.215752	1433.527222
7595.759486	0.085042	0.215752	1509.724365
7595.760427	0.084990	0.215752	1589.700195
7595.761364	0.084965	0.215752	1669.312012
7595.762261	0.085027	0.215752	1745.581055
7595.763172	0.084950	0.215752	1822.970459
7595.764102	0.085009	0.215752	1902.028442
7596.804052	1.164855	0.235325	512.536072
7596.804950	0.680057	0.235325	1123.227539
7596.805910	0.086664	0.235325	1206.424805
7596.806836	0.084877	0.235325	1285.020630
7596.807728	0.084972	0.235325	1360.815552
7596.808663	0.084888	0.235325	1440.185547
7596.809582	0.084921	0.235325	1518.227661
7596.810500	0.084968	0.235325	1596.228516
7596.811389	0.084917	0.235325	1671.719727
7596.812339	0.084979	0.235325	1752.449951
7596.813232	0.085027	0.235325	1828.378906
7596.814148	0.084935	0.235325	1906.179687
7597.825496	1.175321	0.215873	528.894470
7597.826402	0.670909	0.215873	1136.738403
7597.827345	0.087488	0.215873	1219.239380
7597.828249	0.085034	0.215873	1296.110229
7597.829153	0.084950	0.215873	1372.905029
7597.830043	0.084998	0.215873	1448.552856
7597.830989	0.085005	0.215873	1528.967529
7597.831888	0.084972	0.215873	1605.357300
7597.832782	0.085012	0.215873	1681.358154
7597.833685	0.085009	0.215873	1758.120850
7597.834624	0.085071	0.215873	1838.002319
7597.835539	0.084935	0.215873	1915.718140
7598.868435	1.163104	0.240788	509.439636
7598.869379	0.666822	0.240788	1138.920044
7598.870299	0.086580	0.240788	1218.573242
7598.871226	0.084899	0.240788	1297.274292
7598.872125	0.084954	0.240788	1373.647583
7598.873065	0.084921	0.240788	1453.473022
7598.873986	0.084851	0.240788	1531.620850
7598.874905	0.085005	0.240788	1609.740356
7598.875794	0.084961	0.240788	1685.270630
7598.876741	0.085016	0.240788	1765.780640
7598.877677	0.084998	0.240788	1845.338379
7598.878575	0.084990	0.240788	1921.659668
7599.898131	1.242689	0.213117	635.014221
7599.899050	0.557377	0.213117	1147.243408
7599.899973	0.086016	0.213117	1226.635864
7599.900864	0.084895	0.213117	1302.277344
7599.901803	0.084979	0.213117	1382.072876
7599.902697	0.084946	0.213117	1458.014893
7599.903589	0.085001	0.213117	1533.835937
7599.904525	0.084998	0.213117	1613.393677
7599.905441	0.084972	0.213117	1691.227905
7599.906348	0.084928	0.213117	1768.257568
7599.907234	0.085012	0.213117	1843.578369
7599.908175	0.084921	0.213117	1923.488647
7600.932304	1.161130	0.240147	513.219604
7600.933199	0.688378	0.240147	1129.317627
7600.934142	0.086957	0.240147	1211.317871
7600.935060	0.084880	0.240147	1289.238037
7600.935960	0.085009	0.240147	1365.745728
7600.936882	0.085052	0.240147	1444.164062
7600.937792	0.085034	0.240147	1521.545166
7600.938693	0.084899	0.240147	1598.038818
7600.939584	0.084961	0.240147	1673.739014
7600.940542	0.084994	0.240147	1755.163208
7600.941446	0.084899	0.240147	1831.911621
7600.942341	0.084939	0.240147	1907.932007
7601.970165	1.199125	0.212473	563.588623
7601.971081	0.621625	0.212473	1132.996826
7601.971964	0.086920	0.212473	1209.747314
7601.972915	0.084811	0.212473	1290.402344
7601.973842	0.084745	0.212473	1368.960815
7601.974741	0.084829	0.212473	1445.222168
7601.975655	0.084771	0.212473	1522.702393
7601.976593	0.084785	0.212473	1602.230835
7601.977505	0.084833	0.212473	1679.598267
7601.978397	0.084785	0.212473	1755.226562
7601.979349	0.084825	0.212473	1835.980347
7601.980296	0.084888	0.212473	1916.369019
7602.996682	1.162753	0.241118	510.448395
7602.997644	0.631633	0.241118	1118.079590
7602.998557	0.086378	0.241118	1196.942871
7602.999477	0.084829	0.241118	1274.985596
7603.000365	0.084858	0.241118	1350.339844
7603.001300	0.084858	0.241118	1429.682495
7603.002211	0.084756	0.241118	1506.895020
7603.003125	0.084800	0.241118	1584.402100
7603.004014	0.084866	0.241118	1659.847778
7603.004969	0.084756	0.241118	1740.789673
7603.005869	0.084829	0.241118	1817.135864
7603.006758	0.084814	0.241118	1892.535889
7604.041179	1.185125	0.212440	533.306030
7604.042087	0.665295	0.212440	1137.394287
7604.042973	0.087678	0.212440	1215.077148
7604.043928	0.084983	0.212440	1296.235840
7604.044827	0.084891	0.212440	1372.553223
7604.045729	0.084924	0.212440	1449.154907
7604.046658	0.084965	0.212440	1528.087036
7604.047563	0.085148	0.212440	1605.145752
7604.048468	0.084972	0.212440	1682.045288
7604.049363	0.084990	0.212440	1758.111572
7604.050311	0.085016	0.212440	1838.706665
7604.051206	0.084987	0.212440	1914.769653
7605.062128	1.187637	0.240800	557.001648
7605.063068	0.586575	0.240800	1108.381836
7605.063973	0.086371	0.240800	1186.547485
7605.064893	0.084965	0.240800	1264.714966
7605.065826	0.084921	0.240800	1343.945923
7605.066741	0.084961	0.240800	1421.685181
7605.067630	0.084968	0.240800	1497.221924
7605.068577	0.084935	0.240800	1577.655640
7605.069513	0.084869	0.240800	1657.093384
7605.070413	0.084990	0.240800	1733.584595
7605.071329	0.084972	0.240800	1811.418823
7605.072263	0.084906	0.240800	1890.721069
7606.111201	1.184366	0.213101	531.780518
7606.112106	0.672997	0.213101	1140.842651
7606.112994	0.087810	0.213101	1218.817993
7606.113950	0.085001	0.213101	1300.079102
7606.114840	0.084844	0.213101	1375.590088
7606.115757	0.084866	0.213101	1453.411987
7606.116656	0.084895	0.213101	1529.732666
7606.117606	0.084987	0.213101	1610.469971
7606.118507	0.084862	0.213101	1686.930664
7606.119396	0.084939	0.213101	1762.441406
7606.120339	0.085042	0.213101	1842.635498
7606.121253	0.084990	0.213101	1920.316528
7607.128011	1.159757	0.238588	504.494293
7607.128950	0.670638	0.238588	1134.223755
7607.129895	0.086635	0.238588	1216.093384
7607.130814	0.084891	0.238588	1294.108521
7607.131701	0.084990	0.238588	1369.494873
7607.132647	0.084998	0.238588	1449.902588
7607.133586	0.084884	0.238588	1529.608643
7607.134507	0.084928	0.238588	1607.827271
7607.135394	0.084950	0.238588	1683.177856
7607.136336	0.085020	0.238588	1763.266235
7607.137245	0.085001	0.238588	1840.532349
7607.138146	0.084946	0.238588	1917.068970
7608.179672	1.179829	0.214865	528.563477
7608.180571	0.681790	0.214865	1141.492310
7608.181495	0.087187	0.214865	1222.053589
7608.182437	0.084921	0.214865	1302.048828
7608.183358	0.084950	0.214865	1380.287720
7608.184245	0.084869	0.214865	1455.566895
7608.185197	0.084924	0.214865	1536.414795
7608.186133	0.084990	0.214865	1615.965698
7608.187021	0.085034	0.214865	1691.476074
7608.187940	0.084932	0.214865	1769.528198
7608.188878	0.084873	0.214865	1849.139160
7608.189799	0.084950	0.214865	1927.378052
7609.195467	1.156479	0.238250	505.381531
7609.196387	0.685851	0.238250	1136.364258
7609.197297	0.087213	0.238250	1215.728271
7609.198201	0.084961	0.238250	1292.532959
7609.199092	0.084924	0.238250	1368.200562
7609.200026	0.085034	0.238250	1447.622437
7609.200941	0.085056	0.238250	1525.448853
7609.201843	0.084994	0.238250	1602.113281
7609.202732	0.084910	0.238250	1677.598022
7609.203675	0.085023	0.238250	1757.774902
7609.204575	0.084957	0.238250	1834.236450
7609.205466	0.084906	0.238250	1909.887695
7610.248136	1.154176	0.215562	503.220734
7610.249103	0.612048	0.215562	1095.071411
7610.250049	0.086136	0.215562	1176.556519
7610.250964	0.084954	0.215562	1254.289062
7610.251861	0.084939	0.215562	1330.479370
7610.252819	0.084976	0.215562	1411.885986
7610.253755	0.084899	0.215562	1491.351196
7610.254656	0.084972	0.215562	1567.910889
7610.255574	0.084965	0.215562	1645.908447
7610.256504	0.084935	0.215562	1724.898315
7610.257422	0.084972	0.215562	1802.902588
7610.258312	0.085016	0.215562	1878.566650
7611.262422	1.164551	0.236522	517.060547
7611.263318	0.687707	0.236522	1133.246460
7611.264266	0.086781	0.236522	1215.514893
7611.265180	0.084844	0.236522	1293.062134
7611.266093	0.084965	0.236522	1370.634766
7611.266987	0.084880	0.236522	1446.517822
7611.267935	0.084939	0.236522	1527.039917
7611.268859	0.084990	0.236522	1605.570923
7611.269753	0.084979	0.236522	1681.542358
7611.270708	0.084884	0.236522	1762.606567
7611.271621	0.084932	0.236522	1840.149170
7611.272538	0.084968	0.236522	1918.065063
7612.316135	1.188091	0.218507	544.145569
7612.317048	0.639196	0.218507	1127.731201
7612.317952	0.087089	0.218507	1206.459351
7612.318846	0.084946	0.218507	1282.401367
7612.319800	0.085023	0.218507	1363.513550
7612.320703	0.084957	0.218507	1440.229980
7612.321603	0.084939	0.218507	1516.675049
7612.322529	0.084994	0.218507	1595.379395
7612.323429	0.084972	0.218507	1671.854126
7612.324325	0.084950	0.218507	1747.969238
7612.325212	0.084921	0.218507	1823.293823
7612.326148	0.085071	0.218507	1902.920044
7613.330932	1.186978	0.234584	574.497131
7613.331895	0.556003	0.234584	1109.928467
7613.332818	0.085865	0.234584	1189.182251
7613.333709	0.084972	0.234584	1264.892212
7613.334627	0.084891	0.234584	1342.822510
7613.335553	0.084946	0.234584	1421.482788
7613.336481	0.084917	0.234584	1500.285767
7613.337379	0.084939	0.234584	1576.560913
7613.338294	0.084965	0.234584	1654.303467
7613.339242	0.084902	0.234584	1734.790894
7613.340160	0.084913	0.234584	1812.741333
7613.341048	0.084932	0.234584	1888.160645
7614.383123	1.194873	0.218471	614.164795
7614.384037	0.558300	0.218471	1124.450562
7614.384964	0.085869	0.218471	1204.051270
7614.385861	0.084910	0.218471	1280.215210
7614.386796	0.084943	0.218471	1359.636597
7614.387704	0.084913	0.218471	1436.737915
7614.388621	0.084946	0.218471	1514.633667
7614.389510	0.084994	0.218471	1590.193237
7614.390468	0.084954	0.218471	1671.578857
7614.391359	0.084935	0.218471	1747.256226
7614.392245	0.084965	0.218471	1822.534912
7614.393182	0.084998	0.218471	1902.177612
7615.398912	1.210580	0.235293	598.026428
7615.399837	0.570256	0.235293	1125.513550
7615.400737	0.086514	0.235293	1203.375854
7615.401625	0.084954	0.235293	1278.814697
7615.402573	0.085031	0.235293	1359.423584
7615.403463	0.084884	0.235293	1434.970337
7615.404369	0.084899	0.235293	1511.888550
7615.405263	0.084957	0.235293	1587.840332
7615.406218	0.084994	0.235293	1669.009521
7615.407127	0.084954	0.235293	1746.232300
7615.408026	0.084880	0.235293	1822.539795
7615.408947	0.085049	0.235293	1900.869751
7616.450547	1.189563	0.220888	568.611084
7616.451501	0.550291	0.220888	1093.588257
7616.452422	0.085942	0.220888	1172.741211
7616.453310	0.084895	0.220888	1248.127930
7616.454259	0.084921	0.220888	1328.717651
7616.455196	0.084961	0.220888	1408.326050
7616.456095	0.085045	0.220888	1484.781616
7616.457016	0.084902	0.220888	1562.976685
7616.457944	0.085009	0.220888	1641.864624
7616.458873	0.084910	0.220888	1720.745728
7616.459776	0.084932	0.220888	1797.438965
7616.460706	0.084946	0.220888	1876.438965
7617.467348	1.175409	0.235188	527.758606
7617.468253	0.670964	0.235188	1134.981323
7617.469193	0.087532	0.235188	1217.261108
7617.470110	0.084921	0.235188	1295.133301
7617.471015	0.084928	0.235188	1371.993164
7617.471908	0.084899	0.235188	1447.807739
7617.472839	0.084983	0.235188	1526.926880
7617.473752	0.084866	0.235188	1604.409302
7617.474670	0.084880	0.235188	1682.329468
7617.475559	0.084961	0.235188	1757.859741
7617.476500	0.084968	0.235188	1837.814819
7617.477402	0.084961	0.235188	1914.449585
7618.518999	1.181755	0.221468	525.881165
7618.519924	0.651328	0.221468	1128.359619
7618.520824	0.087187	0.221468	1206.828369
7618.521749	0.084935	0.221468	1285.393555
7618.522665	0.085052	0.221468	1363.301636
7618.523573	0.084869	0.221468	1440.363037
7618.524478	0.084965	0.221468	1517.255981
7618.525417	0.085071	0.221468	1597.137451
7618.526323	0.084998	0.221468	1674.145264
7618.527221	0.084943	0.221468	1750.423706
7618.528106	0.084972	0.221468	1825.623901
7618.529043	0.085023	0.221468	1905.290649
7619.534810	1.181353	0.235672	532.790039
7619.535702	0.683079	0.235672	1142.096191
7619.536680	0.086810	0.235672	1226.996704
7619.537588	0.084928	0.235672	1304.111328
7619.538500	0.084932	0.235672	1381.568970
7619.539402	0.084932	0.235672	1458.177246
7619.540347	0.084884	0.235672	1538.392700
7619.541262	0.084935	0.235672	1616.108521
7619.542162	0.084950	0.235672	1692.563477
7619.543090	0.084987	0.235672	1771.431030
7619.544003	0.084961	0.235672	1849.000366
7619.544919	0.084928	0.235672	1926.794434
7620.586463	1.184484	0.220670	534.202148
7620.587368	0.671049	0.220670	1141.501099
7620.588257	0.087697	0.220670	1219.463257
7620.589219	0.084972	0.220670	1301.206299
7620.590111	0.084880	0.220670	1376.919556
7620.591007	0.084968	0.220670	1453.051147
7620.591935	0.084910	0.220670	1531.847290
7620.592849	0.084917	0.220670	1609.461426
7620.593757	0.084961	0.220670	1686.605957
7620.594647	0.084932	0.220670	1762.195068
7620.595586	0.084976	0.220670	1841.987183
7620.596491	0.084932	0.220670	1918.850342
7621.602776	1.173234	0.234560	530.301575
7621.603669	0.677219	0.234560	1135.058350
7621.604637	0.086924	0.234560	1219.200562
7621.605568	0.084913	0.234560	1298.254883
7621.606472	0.084998	0.234560	1375.092651
7621.607389	0.084880	0.234560	1452.927979
7621.608322	0.084972	0.234560	1532.206787
7621.609230	0.084902	0.234560	1609.298096
7621.610125	0.084880	0.234560	1685.265991
7621.611068	0.084873	0.234560	1765.301270
7621.611994	0.084972	0.234560	1843.985229
7621.612894	0.084921	0.234560	1920.413818
7622.653924	1.180349	0.220489	548.862366
7622.654837	0.633582	0.220489	1127.322266
7622.655727	0.087173	0.220489	1204.906128
7622.656680	0.084935	0.220489	1285.849487
7622.657607	0.084939	0.220489	1364.587891
7622.658499	0.084961	0.220489	1440.373047
7622.659448	0.084921	0.220489	1520.962769
7622.660366	0.084884	0.220489	1598.886353
7622.661284	0.085027	0.220489	1676.941040
7622.662179	0.084928	0.220489	1752.951538
7622.663116	0.084957	0.220489	1832.556519
7622.664036	0.084928	0.220489	1910.690308
7623.669719	1.182323	0.234487	532.045410
7623.670617	0.678307	0.234487	1141.165039
7623.671562	0.087151	0.234487	1223.522583
7623.672475	0.084910	0.234487	1301.045166
7623.673384	0.084950	0.234487	1378.264648
7623.674275	0.084957	0.234487	1453.961548
7623.675231	0.085020	0.234487	1535.240234
7623.676140	0.084946	0.234487	1612.456421
7623.677038	0.084957	0.234487	1688.748047
7623.677970	0.084943	0.234487	1767.914551
7623.678869	0.085038	0.234487	1844.363525
7623.679769	0.084899	0.234487	1920.772339
7624.722383	1.166144	0.219877	515.435547
7624.723328	0.657374	0.219877	1136.654297
7624.724263	0.086528	0.219877	1217.558228
7624.725184	0.085078	0.219877	1295.915161
7624.726082	0.084946	0.219877	1372.196899
7624.727015	0.084910	0.219877	1451.417603
7624.727949	0.084950	0.219877	1530.760864
7624.728848	0.084935	0.219877	1607.117676
7624.729758	0.084913	0.219877	1684.388794
7624.730693	0.084822	0.219877	1763.697144
7624.731632	0.084935	0.219877	1843.451416
7624.732525	0.084880	0.219877	1919.249634
7625.737160	1.161273	0.238137	508.637634
7625.738098	0.675652	0.238137	1142.399048
7625.739018	0.086675	0.238137	1222.139893
7625.739916	0.084855	0.238137	1298.339478
7625.740803	0.084910	0.238137	1373.654297
7625.741749	0.084957	0.238137	1454.023926
7625.742654	0.084928	0.238137	1530.883789
7625.743552	0.084979	0.238137	1607.195190
7625.744444	0.084950	0.238137	1682.970581
7625.745383	0.084957	0.238137	1762.745483
7625.746287	0.084913	0.238137	1839.507080
7625.747207	0.084932	0.238137	1917.644165
7626.790344	1.155707	0.219204	502.732452
7626.791318	0.584271	0.219204	1071.812622
7626.792223	0.086536	0.219204	1150.127319
7626.793126	0.085009	0.219204	1226.890015
7626.794012	0.084983	0.219204	1302.184814
7626.794964	0.084987	0.219204	1383.092041
7626.795876	0.085016	0.219204	1460.626465
7626.796772	0.084935	0.219204	1536.728516
7626.797716	0.084946	0.219204	1616.917847
7626.798617	0.085009	0.219204	1693.510498
7626.799514	0.085031	0.219204	1769.782837
7626.800400	0.084979	0.219204	1845.074463
7627.805641	1.169773	0.240276	514.700073
7627.806622	0.572571	0.240276	1076.392090
7627.807555	0.085990	0.240276	1156.620728
7627.808456	0.084976	0.240276	1233.183716
7627.809373	0.085016	0.240276	1311.143311
7627.810317	0.084943	0.240276	1391.329102
7627.811243	0.084910	0.240276	1469.955444
7627.812136	0.084932	0.240276	1545.799438
7627.813081	0.084957	0.240276	1626.084106
7627.814016	0.084946	0.240276	1705.508911
7627.814914	0.084924	0.240276	1781.770996
7627.815832	0.084921	0.240276	1859.728149
7628.858331	1.184703	0.216900	527.192993
7628.859256	0.647721	0.216900	1126.334961
7628.860180	0.086799	0.216900	1206.537476
7628.861079	0.084957	0.216900	1282.914062
7628.862027	0.085027	0.216900	1363.519531
7628.862935	0.084906	0.216900	1440.614136
7628.863828	0.084939	0.216900	1516.464600
7628.864779	0.085012	0.216900	1597.311157
7628.865685	0.084833	0.216900	1674.169678
7628.866580	0.085005	0.216900	1750.249023
7628.867465	0.084946	0.216900	1825.426514
7628.868389	0.084976	0.216900	1903.943970
7629.873625	1.197385	0.239559	541.218079
7629.874600	0.549020	0.239559	1076.512451
7629.875524	0.085862	0.239559	1155.848755
7629.876415	0.084888	0.239559	1231.483643
7629.877372	0.084873	0.239559	1312.707153
7629.878305	0.084950	0.239559	1391.965454
7629.879206	0.084957	0.239559	1468.511963
7629.880133	0.084950	0.239559	1547.260620
7629.881062	0.084924	0.239559	1626.155273
7629.881980	0.084976	0.239559	1704.162842
7629.882867	0.084921	0.239559	1779.487427
7629.883802	0.084888	0.239559	1858.857422
7630.924750	1.164906	0.216191	511.393738
7630.925692	0.662966	0.216191	1135.907959
7630.926632	0.086693	0.216191	1217.399536
7630.927547	0.084994	0.216191	1295.168945
7630.928437	0.084943	0.216191	1370.767822
7630.929392	0.084924	0.216191	1451.870605
7630.930317	0.084939	0.216191	1530.439209
7630.931220	0.084968	0.216191	1607.165527
7630.932136	0.084873	0.216191	1684.909180
7630.933057	0.084987	0.216191	1763.181763
7630.933986	0.084888	0.216191	1842.042480
7630.934885	0.084946	0.216191	1918.409180
7631.942641	1.209745	0.241650	578.257996
7631.943555	0.603955	0.241650	1130.272949
7631.944498	0.086660	0.241650	1211.993530
7631.945411	0.084906	0.241650	1289.512695
7631.946309	0.084932	0.241650	1365.781250
7631.947195	0.084987	0.241650	1441.079346
7631.948140	0.085001	0.241650	1521.405518
7631.949038	0.084946	0.241650	1597.687256
7631.949927	0.084946	0.241650	1673.204468
7631.950855	0.084957	0.241650	1752.044800
7631.951762	0.085009	0.241650	1829.147583
7631.952663	0.084965	0.241650	1905.700684
7632.991209	1.203457	0.215466	568.031677
7632.992122	0.622152	0.215466	1136.056519
7632.993043	0.086807	0.215466	1216.005371
7632.993988	0.084939	0.215466	1296.272705
7632.994908	0.084939	0.215466	1374.416504
7632.995803	0.085012	0.215466	1450.502441
7632.996724	0.084994	0.215466	1528.781860
7632.997660	0.084913	0.215466	1608.260742
7632.998576	0.084987	0.215466	1686.108398
7632.999465	0.084939	0.215466	1761.619141
7633.000413	0.084906	0.215466	1842.109985
7633.001344	0.084902	0.215466	1921.154053
7634.011593	1.167601	0.242661	511.409393
7634.012563	0.590508	0.242661	1084.201904
7634.013485	0.086158	0.242661	1163.640015
7634.014384	0.084851	0.242661	1239.921143
7634.015305	0.084910	0.242661	1318.122925
7634.016235	0.084888	0.242661	1397.068481
7634.017151	0.084921	0.242661	1474.855835
7634.018039	0.084858	0.242661	1550.210083
7634.018989	0.084833	0.242661	1630.801270
7634.019921	0.084902	0.242661	1709.930298
7634.020824	0.084946	0.242661	1786.636841
7634.021733	0.084866	0.242661	1863.779785
7635.057148	1.182404	0.214273	575.830566
7635.058086	0.551111	0.214273	1092.772461
7635.058998	0.086056	0.214273	1171.255493
7635.059888	0.084987	0.214273	1246.893555
7635.060841	0.084950	0.214273	1327.850830
7635.061744	0.084913	0.214273	1404.527588
7635.062636	0.084924	0.214273	1480.280029
7635.063524	0.084968	0.214273	1555.731812
7635.064455	0.084968	0.214273	1634.837280
7635.065355	0.084943	0.214273	1711.285645
7635.066246	0.084928	0.214273	1786.956421
7635.067169	0.084895	0.214273	1865.314575
7636.082132	1.166407	0.244280	521.384155
7636.083105	0.600626	0.244280	1105.793457
7636.084026	0.086283	0.244280	1185.260010
7636.084919	0.084932	0.244280	1261.104004
7636.085839	0.084895	0.244280	1339.207397
7636.086767	0.084976	0.244280	1418.064697
7636.087687	0.084932	0.244280	1496.201782
7636.088583	0.085016	0.244280	1572.375977
7636.089524	0.084939	0.244280	1652.303589
7636.090456	0.084998	0.244280	1731.521362
7636.091373	0.084932	0.244280	1809.403687
7636.092264	0.084884	0.244280	1885.035400
7637.122009	1.179034	0.216078	535.281616
7637.122957	0.597993	0.216078	1102.179199
7637.123849	0.086642	0.216078	1179.463745
7637.124777	0.084965	0.216078	1258.310913
7637.125700	0.084906	0.216078	1336.679199
7637.126622	0.084990	0.216078	1415.040161
7637.127511	0.084972	0.216078	1490.580200
7637.128465	0.084910	0.216078	1571.583984
7637.129378	0.084968	0.216078	1649.160034
7637.130272	0.084965	0.216078	1725.118408
7637.131187	0.085020	0.216078	1802.911255
7637.132124	0.084954	0.216078	1882.512817
7638.152650	1.159914	0.241658	509.202454
7638.153620	0.581862	0.241658	1073.608154
7638.154526	0.086415	0.241658	1151.899902
7638.155431	0.084987	0.241658	1228.812744
7638.156330	0.084950	0.241658	1305.182739
7638.157263	0.085045	0.241658	1384.529907
7638.158170	0.084880	0.241658	1461.516357
7638.159065	0.084943	0.241658	1537.540039
7638.159996	0.084983	0.241658	1616.659180
7638.160888	0.084987	0.241658	1692.467163
7638.161785	0.084884	0.241658	1768.608154
7638.162679	0.085012	0.241658	1844.609009
7639.186421	1.176299	0.214688	549.331543
7639.187332	0.642008	0.214688	1134.200928
7639.188221	0.087275	0.214688	1211.788696
7639.189166	0.084939	0.214688	1292.056030
7639.190098	0.084943	0.214688	1371.222534
7639.191007	0.084994	0.214688	1448.481934
7639.191898	0.084979	0.214688	1524.198486
7639.192848	0.084917	0.214688	1604.869629
7639.193787	0.084939	0.214688	1684.627319
7639.194690	0.084961	0.214688	1761.347046
7639.195622	0.084924	0.214688	1840.496460
7639.196563	0.085016	0.214688	1920.496338
7640.224244	1.172838	0.241033	561.789429
7640.225178	0.582209	0.241033	1105.572998
7640.226104	0.086206	0.241033	1185.399780
7640.226993	0.085038	0.241033	1260.998413
7640.227937	0.085016	0.241033	1341.253418
7640.228838	0.085016	0.241033	1417.852661
7640.229757	0.084979	0.241033	1495.948608
7640.230656	0.084891	0.241033	1572.265991
7640.231619	0.084902	0.241033	1654.026978
7640.232544	0.084943	0.241033	1732.598877
7640.233437	0.084943	0.241033	1808.452637
7640.234373	0.084895	0.241033	1887.914307
7641.251285	1.179335	0.218012	524.803894
7641.252192	0.666105	0.218012	1128.960937
7641.253128	0.087052	0.218012	1210.441650
7641.254036	0.084979	0.218012	1287.602783
7641.254950	0.085012	0.218012	1365.303955
7641.255837	0.085009	0.218012	1440.706543
7641.256787	0.085034	0.218012	1521.489014
7641.257690	0.085020	0.218012	1598.261597
7641.258588	0.084983	0.218012	1674.576294
7641.259540	0.084968	0.218012	1755.466064
7641.260439	0.085016	0.218012	1831.895264
7641.261342	0.084932	0.218012	1908.588501
7642.295295	1.230685	0.239422	599.343506
7642.296240	0.549730	0.239422	1118.838623
7642.297161	0.086056	0.239422	1198.096069
7642.298055	0.084950	0.239422	1274.041260
7642.298992	0.085001	0.239422	1353.687378
7642.299936	0.084983	0.239422	1433.911255
7642.300836	0.085005	0.239422	1510.415649
7642.301756	0.084972	0.239422	1588.589844
7642.302694	0.084954	0.239422	1668.276367
7642.303607	0.084979	0.239422	1745.862427
7642.304492	0.085027	0.239422	1821.111206
7642.305434	0.084968	0.239422	1901.151367
7643.315157	1.164141	0.218628	518.042542
7643.316058	0.686777	0.218628	1136.828857
7643.316947	0.088099	0.218628	1215.149170
7643.317918	0.084928	0.218628	1297.614258
7643.318841	0.084994	0.218628	1376.063599
7643.319730	0.084968	0.218628	1451.600342
7643.320653	0.084917	0.218628	1529.978760
7643.321587	0.084946	0.218628	1609.318604
7643.322507	0.084939	0.218628	1687.462402
7643.323393	0.084972	0.218628	1762.747559
7643.324348	0.084880	0.218628	1843.808350
7643.325261	0.084968	0.218628	1921.384399
7644.366800	1.172959	0.238117	520.793762
7644.367708	0.685367	0.238117	1143.107422
7644.368599	0.087850	0.238117	1221.382080
7644.369518	0.084946	0.238117	1299.447754
7644.370437	0.085005	0.238117	1377.567261
7644.371339	0.084924	0.238117	1454.168945
7644.372229	0.085034	0.238117	1529.849365
7644.373167	0.085012	0.238117	1609.590820
7644.374071	0.084910	0.238117	1686.349121
7644.374974	0.084998	0.238117	1763.101929
7644.375866	0.084990	0.238117	1838.913208
7644.376805	0.085071	0.238117	1918.794678
7645.380044	1.159460	0.219784	510.162598
7645.380936	0.704432	0.219784	1138.516357
7645.381905	0.087089	0.219784	1222.905273
7645.382843	0.084917	0.219784	1302.557373
7645.383743	0.084976	0.219784	1379.035400
7645.384664	0.085001	0.219784	1457.321533
7645.385597	0.084906	0.219784	1536.538818
7645.386516	0.084954	0.219784	1614.611206
7645.387402	0.085023	0.219784	1689.941772
7645.388334	0.085049	0.219784	1769.207275
7645.389277	0.084928	0.219784	1849.294312
7645.390196	0.084972	0.219784	1927.383545
7646.436857	1.185304	0.235156	577.243042
7646.437792	0.563485	0.235156	1104.101562
7646.438721	0.085898	0.235156	1183.901245
7646.439610	0.084910	0.235156	1259.385986
7646.440550	0.084913	0.235156	1339.204468
7646.441473	0.084924	0.235156	1417.589600
7646.442392	0.085023	0.235156	1495.725952
7646.443281	0.085023	0.235156	1571.311523
7646.444238	0.084965	0.235156	1652.622681
7646.445158	0.085027	0.235156	1730.847412
7646.446044	0.084987	0.235156	1806.145508
7646.446972	0.085001	0.235156	1885.026611
7647.445490	1.181155	0.222697	566.954346
7647.446419	0.577793	0.222697	1103.723999
7647.447334	0.086393	0.222697	1182.773437
7647.448236	0.085023	0.222697	1259.464355
7647.449168	0.085001	0.222697	1338.685547
7647.450072	0.084976	0.222697	1415.503418
7647.450977	0.084998	0.222697	1492.426270
7647.451866	0.084987	0.222697	1567.979370
7647.452809	0.085016	0.222697	1648.149292
7647.453714	0.084990	0.222697	1725.065430
7647.454609	0.085005	0.222697	1801.144775
7647.455550	0.085042	0.222697	1881.168823
7648.506327	1.165668	0.234201	516.390808
7648.507220	0.690868	0.234201	1133.335815
7648.508189	0.087268	0.234201	1217.898560
7648.509105	0.084972	0.234201	1295.732788
7648.510001	0.084965	0.234201	1371.861084
7648.510921	0.085009	0.234201	1450.068970
7648.511858	0.084895	0.234201	1529.615601
7648.512780	0.084950	0.234201	1607.939453
7648.513675	0.085049	0.234201	1684.058105
7648.514621	0.084972	0.234201	1764.441528
7648.515547	0.085020	0.234201	1843.169556
7648.516474	0.085016	0.234201	1921.979248
7649.512397	1.158761	0.223957	508.696075
7649.513358	0.596858	0.223957	1082.276489
7649.514274	0.086396	0.223957	1161.415649
7649.515163	0.084965	0.223957	1236.949219
7649.516075	0.084943	0.223957	1314.416870
7649.517008	0.084976	0.223957	1393.699097
7649.517912	0.084932	0.223957	1470.477295
7649.518804	0.084950	0.223957	1546.252686
7649.519753	0.085005	0.223957	1626.922363
7649.520658	0.084906	0.223957	1703.762329
7649.521579	0.085005	0.223957	1782.051880
7649.522465	0.084961	0.223957	1857.327271
7650.575306	1.162910	0.232626	510.517548
7650.576274	0.599612	0.232626	1090.941772
7650.577170	0.086594	0.232626	1168.530273
7650.578063	0.084917	0.232626	1244.361084
7650.579000	0.085031	0.232626	1324.034668
7650.579913	0.085023	0.232626	1401.660889
7650.580824	0.084932	0.232626	1479.033569
7650.581716	0.085034	0.232626	1554.884033
7650.582668	0.085085	0.232626	1635.885376
7650.583572	0.085001	0.232626	1712.726440
7650.584461	0.085049	0.232626	1788.334839
7650.585348	0.084924	0.232626	1863.662720
7651.579361	1.182894	0.225021	534.668213
7651.580261	0.671477	0.225021	1138.997559
7651.581189	0.087458	0.225021	1220.159058
7651.582144	0.084884	0.225021	1301.223267
7651.583061	0.084972	0.225021	1379.142578
7651.583953	0.084895	0.225021	1454.868896
7651.584903	0.084935	0.225021	1535.557495
7651.585834	0.084935	0.225021	1614.632324
7651.586733	0.084961	0.225021	1691.012207
7651.587658	0.085001	0.225021	1769.638306
7651.588582	0.084899	0.225021	1848.084717
7651.589513	0.084880	0.225021	1927.108398
7652.643811	1.200608	0.231724	547.477173
7652.644789	0.535250	0.231724	1070.951904
7652.645709	0.085862	0.231724	1149.944824
7652.646598	0.084899	0.231724	1225.419800
7652.647549	0.084873	0.231724	1306.134033
7652.648480	0.084891	0.231724	1385.167847
7652.649371	0.085005	0.231724	1460.907227
7652.650297	0.084943	0.231724	1539.564087
7652.651227	0.084961	0.231724	1618.577759
7652.652148	0.084939	0.231724	1696.806519
7652.653040	0.084932	0.231724	1772.565552
7652.653994	0.084983	0.231724	1853.639282
7653.647311	1.160563	0.225452	508.326447
7653.648204	0.706377	0.225452	1139.121094
7653.649154	0.086953	0.225452	1221.726562
7653.650060	0.084932	0.225452	1298.674683
7653.650986	0.084994	0.225452	1377.379028
7653.651873	0.084943	0.225452	1452.723145
7653.652816	0.085045	0.225452	1532.920776
7653.653717	0.084972	0.225452	1609.480469
7653.654603	0.084950	0.225452	1684.746094
7653.655535	0.084994	0.225452	1763.960449
7653.656453	0.084943	0.225452	1841.937744
7653.657358	0.084983	0.225452	1918.847290
7654.711801	1.229857	0.233424	596.480774
7654.712722	0.577390	0.233424	1128.257080
7654.713624	0.086517	0.233424	1206.295654
7654.714512	0.084965	0.233424	1281.744263
7654.715452	0.085060	0.233424	1361.700439
7654.716362	0.084924	0.233424	1438.981567
7654.717252	0.084858	0.233424	1514.505493
7654.718191	0.084987	0.233424	1594.307861
7654.719099	0.085005	0.233424	1671.492310
7654.720001	0.084906	0.233424	1748.077515
7654.720892	0.084957	0.233424	1823.774414
7654.721840	0.084990	0.233424	1904.345215
7655.715272	1.162094	0.225839	511.321136
7655.716167	0.690341	0.225839	1129.175903
7655.717136	0.086960	0.225839	1213.440552
7655.718068	0.084950	0.225839	1292.613892
7655.718965	0.085020	0.225839	1368.876465
7655.719895	0.084979	0.225839	1447.907227
7655.720832	0.084976	0.225839	1527.529297
7655.721753	0.084869	0.225839	1605.693970
7655.722644	0.084924	0.225839	1681.361572
7655.723589	0.084877	0.225839	1761.570068
7655.724520	0.084844	0.225839	1840.559570
7655.725422	0.084943	0.225839	1917.177856
7656.778185	1.154458	0.232997	499.880280
7656.779134	0.627953	0.232997	1095.807617
7656.780041	0.086832	0.232997	1174.564453
7656.780965	0.084950	0.232997	1253.058228
7656.781854	0.084961	0.232997	1328.588501
7656.782808	0.084921	0.232997	1409.602783
7656.783708	0.084917	0.232997	1486.028076
7656.784594	0.084976	0.232997	1561.316406
7656.785539	0.084954	0.232997	1641.597534
7656.786430	0.084921	0.232997	1717.261841
7656.787345	0.084935	0.232997	1794.977661
7656.788247	0.084906	0.232997	1871.562866
7657.783753	1.170710	0.225883	513.941895
7657.784734	0.583169	0.225883	1086.030518
7657.785644	0.086224	0.225883	1164.494629
7657.786544	0.084939	0.225883	1240.939697
7657.787459	0.084921	0.225883	1318.642090
7657.788388	0.084921	0.225883	1397.533325
7657.789307	0.084924	0.225883	1475.578735
7657.790204	0.084939	0.225883	1551.769043
7657.791144	0.084976	0.225883	1631.646118
7657.792073	0.084855	0.225883	1710.476196
7657.792992	0.084939	0.225883	1788.535156
7657.793878	0.084954	0.225883	1863.804077
7658.846196	1.174830	0.233674	565.093384
7658.847143	0.557454	0.233674	1093.001953
7658.848060	0.085909	0.233674	1171.780884
7658.848956	0.084921	0.233674	1247.869751
7658.849913	0.084851	0.233674	1329.072266
7658.850845	0.084888	0.233674	1408.187622
7658.851742	0.084924	0.233674	1484.364746
7658.852657	0.084913	0.233674	1562.060425
7658.853594	0.084818	0.233674	1641.535034
7658.854534	0.084851	0.233674	1721.295044
7658.855427	0.084950	0.233674	1797.155396
7658.856349	0.084840	0.233674	1875.377930
7659.852778	1.185645	0.224932	541.839539
7659.853680	0.661465	0.224932	1138.480713
7659.854572	0.087579	0.224932	1216.601440
7659.855508	0.084869	0.224932	1296.039185
7659.856417	0.084906	0.224932	1373.218750
7659.857336	0.084906	0.224932	1451.247314
7659.858229	0.084880	0.224932	1527.045532
7659.859174	0.084855	0.224932	1607.233276
7659.860071	0.084877	0.224932	1683.367676
7659.860959	0.084873	0.224932	1758.734985
7659.861906	0.084954	0.224932	1839.186035
7659.862800	0.084840	0.224932	1915.033081
7660.912084	1.182253	0.234878	529.649536
7660.912991	0.673799	0.234878	1140.785034
7660.913878	0.087850	0.234878	1218.708252
7660.914838	0.084961	0.234878	1300.270752
7660.915748	0.084899	0.234878	1377.528564
7660.916642	0.084913	0.234878	1453.441040
7660.917594	0.084968	0.234878	1534.330811
7660.918483	0.084994	0.234878	1609.890381
7660.919387	0.084877	0.234878	1686.618896
7660.920278	0.084943	0.234878	1762.302734
7660.921210	0.084998	0.234878	1841.520508
7660.922117	0.084954	0.234878	1918.573486
7661.921756	1.173420	0.223845	528.039185
7661.922651	0.672777	0.223845	1130.174561
7661.923603	0.086884	0.223845	1212.887695
7661.924526	0.084906	0.223845	1291.255981
7661.925425	0.084902	0.223845	1367.583252
7661.926338	0.084921	0.223845	1445.115845
7661.927277	0.084899	0.223845	1524.835693
7661.928197	0.084939	0.223845	1602.979492
7661.929086	0.084895	0.223845	1678.451172
7661.930036	0.084902	0.223845	1759.108398
7661.930977	0.084818	0.223845	1838.922241
7661.931879	0.084935	0.223845	1915.533936
7662.977988	1.154048	0.239213	500.856750
7662.978960	0.605101	0.239213	1089.015137
7662.979875	0.086393	0.239213	1168.064575
7662.980796	0.084840	0.239213	1246.202271
7662.981688	0.084888	0.239213	1321.922119
7662.982641	0.084924	0.239213	1402.854980
7662.983560	0.084855	0.239213	1480.836426
7662.984448	0.084877	0.239213	1556.206909
7662.985378	0.084924	0.239213	1635.186523
7662.986291	0.084899	0.239213	1712.698975
7662.987211	0.084818	0.239213	1790.731689
7662.988107	0.084891	0.239213	1866.794312
7663.992279	1.177412	0.221859	528.658020
7663.993180	0.681654	0.221859	1142.828369
7663.994140	0.087422	0.221859	1226.753418
7663.995045	0.084924	0.221859	1303.609863
7663.995947	0.084873	0.221859	1380.165405
7663.996837	0.084946	0.221859	1455.767578
7663.997769	0.085001	0.221859	1534.988770
7663.998678	0.084880	0.221859	1612.145020
7663.999577	0.084899	0.221859	1688.468994
7664.000499	0.084895	0.221859	1766.742187
7664.001414	0.084957	0.221859	1844.478149
7664.002328	0.084847	0.221859	1922.028687
7665.042921	1.196155	0.241255	558.604309
7665.043863	0.580100	0.241255	1105.058594
7665.044786	0.086173	0.241255	1184.596313
7665.045676	0.084917	0.241255	1260.172485
7665.046608	0.084844	0.241255	1339.246826
7665.047551	0.084869	0.241255	1419.278687
7665.048471	0.084910	0.241255	1497.395630
7665.049360	0.084803	0.241255	1572.785889
7665.050303	0.084840	0.241255	1652.790039
7665.051246	0.084840	0.241255	1732.794189
7665.052144	0.084946	0.241255	1809.075928
7665.053060	0.084829	0.241255	1886.779419
7666.063835	1.170187	0.220167	523.073486
7666.064728	0.674399	0.220167	1125.312256
7666.065681	0.086605	0.220167	1207.847046
7666.066601	0.084822	0.220167	1285.883057
7666.067505	0.084833	0.220167	1362.571899
7666.068445	0.084917	0.220167	1442.393921
7666.069355	0.084869	0.220167	1519.625000
7666.070276	0.084928	0.220167	1597.843628
7666.071161	0.084972	0.220167	1673.043823
7666.072116	0.084899	0.220167	1754.122070
7666.073025	0.084866	0.220167	1831.265015
7666.073942	0.084957	0.220167	1909.170898
7667.107806	1.184854	0.242657	530.814392
7667.108735	0.641726	0.242657	1126.977905
7667.109624	0.087363	0.242657	1204.643799
7667.110574	0.084928	0.242657	1285.325439
7667.111478	0.084998	0.242657	1362.163208
7667.112374	0.084939	0.242657	1438.268555
7667.113262	0.084961	0.242657	1513.713867
7667.114205	0.084987	0.242657	1593.856201
7667.115111	0.084946	0.242657	1670.817505
7667.116014	0.084906	0.242657	1747.487671
7667.116948	0.084976	0.242657	1826.854858
7667.117851	0.085016	0.242657	1903.624146
7668.134861	1.162423	0.218177	510.303741
7668.135784	0.678944	0.218177	1136.969116
7668.136729	0.086378	0.218177	1218.596436
7668.137664	0.084921	0.218177	1297.997192
7668.138564	0.084928	0.218177	1374.432373
7668.139485	0.084895	0.218177	1452.620728
7668.140423	0.084873	0.218177	1532.231689
7668.141340	0.084932	0.218177	1610.114014
7668.142230	0.084862	0.218177	1685.641235
7668.143173	0.084877	0.218177	1765.679932
7668.144112	0.084851	0.218177	1845.355103
7668.145012	0.084862	0.218177	1921.730957
7669.171730	1.249490	0.247024	630.992371
7669.172644	0.564272	0.247024	1146.737427
7669.173568	0.086133	0.247024	1226.324097
7669.174458	0.084818	0.247024	1301.812256
7669.175397	0.084884	0.247024	1381.518311
7669.176323	0.084814	0.247024	1460.056519
7669.177221	0.084844	0.247024	1536.246216
7669.178159	0.084855	0.247024	1615.839966
7669.179059	0.084822	0.247024	1692.179565
7669.179977	0.084811	0.247024	1770.035889
7669.180864	0.084928	0.247024	1845.366943
7669.181824	0.084888	0.247024	1926.859131
7670.205896	1.161790	0.217435	508.863831
7670.206788	0.685269	0.217435	1120.123291
7670.207769	0.086283	0.217435	1204.766846
7670.208676	0.084877	0.217435	1281.750000
7670.209572	0.084902	0.217435	1357.822510
7670.210513	0.084957	0.217435	1437.767334
7670.211425	0.084833	0.217435	1515.134766
7670.212333	0.084840	0.217435	1592.169556
7670.213229	0.084789	0.217435	1668.140381
7670.214174	0.084979	0.217435	1748.445801
7670.215085	0.084877	0.217435	1825.768433
7670.215985	0.084895	0.217435	1902.173950
7671.237081	1.162778	0.246375	512.785278
7671.237984	0.688107	0.246375	1134.145630
7671.238875	0.087997	0.246375	1212.550781
7671.239835	0.084869	0.246375	1294.025391
7671.240771	0.084803	0.246375	1373.401367
7671.241672	0.084840	0.246375	1449.842285
7671.242589	0.084829	0.246375	1527.630615
7671.243507	0.084866	0.246375	1605.537354
7671.244439	0.084781	0.246375	1684.553711
7671.245340	0.084902	0.246375	1761.050781
7671.246263	0.084906	0.246375	1839.419067
7671.247210	0.084811	0.246375	1919.734863
7672.276944	1.160376	0.216573	510.565430
7672.277843	0.687539	0.216573	1128.663086
7672.278791	0.086960	0.216573	1211.101562
7672.279722	0.084796	0.216573	1290.046753
7672.280621	0.084888	0.216573	1366.360840
7672.281539	0.084844	0.216573	1444.247437
7672.282475	0.084756	0.216573	1523.578857
7672.283388	0.084880	0.216573	1601.074585
7672.284275	0.084803	0.216573	1676.295288
7672.285221	0.084814	0.216573	1756.529785
7672.286150	0.084844	0.216573	1835.349609
7672.287038	0.084825	0.216573	1910.674561
7673.301470	1.176302	0.246987	534.041321
7673.302366	0.681207	0.246987	1144.403076
7673.303256	0.087788	0.246987	1222.534424
7673.304204	0.084884	0.246987	1303.004517
7673.305117	0.084851	0.246987	1380.473511
7673.306039	0.084862	0.246987	1458.716309
7673.306932	0.084851	0.246987	1534.488281
7673.307878	0.084840	0.246987	1614.747070
7673.308776	0.084880	0.246987	1690.969604
7673.309664	0.084910	0.246987	1766.369385
7673.310602	0.084924	0.246987	1846.028442
7673.311494	0.084873	0.246987	1921.735229
7674.346963	1.169766	0.217786	511.187561
7674.347893	0.648190	0.217786	1114.003906
7674.348792	0.087114	0.217786	1192.319580
7674.349721	0.084921	0.217786	1271.210815
7674.350626	0.084858	0.217786	1348.007690
7674.351525	0.084858	0.217786	1424.295410
7674.352415	0.084814	0.217786	1499.780273
7674.353368	0.084888	0.217786	1580.678223
7674.354272	0.084873	0.217786	1657.403442
7674.355173	0.084847	0.217786	1733.850952
7674.356087	0.084888	0.217786	1811.438354
7674.357012	0.084910	0.217786	1889.979736
7675.367366	1.155007	0.248011	501.273193
7675.368305	0.646300	0.248011	1108.148926
7675.369255	0.086521	0.248011	1190.343872
7675.370169	0.084833	0.248011	1267.880981
7675.371063	0.084825	0.248011	1343.714966
7675.372017	0.084888	0.248011	1424.697876
7675.372948	0.084855	0.248011	1503.697632
7675.373845	0.084844	0.248011	1579.802490
7675.374753	0.084855	0.248011	1656.850586
7675.375693	0.084862	0.248011	1736.620972
7675.376607	0.084851	0.248011	1814.174805
7675.377501	0.084888	0.248011	1890.064453
7676.416466	1.162614	0.217472	505.736877
7676.417420	0.650043	0.217472	1125.877686
7676.418324	0.086796	0.217472	1204.340942
7676.419243	0.084811	0.217472	1282.282104
7676.420132	0.084884	0.217472	1357.744019
7676.421083	0.084869	0.217472	1438.454834
7676.421989	0.084917	0.217472	1515.389648
7676.422909	0.084884	0.217472	1593.482910
7676.423798	0.084873	0.217472	1668.935059
7676.424741	0.084939	0.217472	1749.032471
7676.425670	0.084877	0.217472	1827.882935
7676.426558	0.084884	0.217472	1903.260010
7677.433818	1.180177	0.244812	528.719299
7677.434725	0.671071	0.244812	1137.380249
7677.435612	0.087773	0.244812	1215.235229
7677.436560	0.084950	0.244812	1295.767822
7677.437458	0.084946	0.244812	1372.049561
7677.438357	0.084873	0.244812	1448.350464
7677.439286	0.084921	0.244812	1527.241699
7677.440193	0.084932	0.244812	1604.274658
7677.441094	0.084836	0.244812	1680.712280
7677.441981	0.084910	0.244812	1756.027100
7677.442925	0.084888	0.244812	1836.161133
7677.443825	0.084877	0.244812	1912.550171
7678.485486	1.179078	0.221226	543.555115
7678.486407	0.637712	0.221226	1130.888184
7678.487301	0.087001	0.221226	1208.666870
7678.488232	0.084778	0.221226	1287.594971
7678.489181	0.084869	0.221226	1368.135986
7678.490090	0.084928	0.221226	1445.335571
7678.490988	0.084888	0.221226	1521.564697
7678.491918	0.084902	0.221226	1600.523926
7678.492838	0.084851	0.221226	1678.586914
7678.493741	0.084906	0.221226	1755.257080
7678.494631	0.084803	0.221226	1830.732178
7678.495574	0.084946	0.221226	1910.836548
7679.501269	1.192309	0.245328	536.539246
7679.502217	0.594302	0.245328	1099.937256
7679.503119	0.086620	0.245328	1178.068359
7679.504085	0.084858	0.245328	1260.041626
7679.504989	0.084862	0.245328	1336.756958
7679.505910	0.084884	0.245328	1414.935181
7679.506800	0.084866	0.245328	1490.465698
7679.507761	0.084774	0.245328	1571.933716
7679.508683	0.084833	0.245328	1650.149536
7679.509572	0.084891	0.245328	1725.617920
7679.510512	0.084946	0.245328	1805.467407
7679.511415	0.084906	0.245328	1882.137573
7680.553949	1.181411	0.220469	530.453613
7680.554859	0.658015	0.220469	1129.247314
7680.555804	0.087037	0.220469	1211.497559
7680.556710	0.084851	0.220469	1288.372681
7680.557613	0.084803	0.220469	1364.950195
7680.558501	0.084888	0.220469	1440.330444
7680.559447	0.084961	0.220469	1520.703491
7680.560354	0.084778	0.220469	1597.596924
7680.561250	0.084825	0.220469	1673.600464
7680.562174	0.084840	0.220469	1751.992676
7680.563085	0.084913	0.220469	1829.348755
7680.563993	0.084880	0.220469	1906.420166
7681.568761	1.198136	0.245030	575.105286
7681.569677	0.609932	0.245030	1133.802734
7681.570568	0.086821	0.245030	1211.160522
7681.571522	0.084836	0.245030	1292.094482
7681.572450	0.084851	0.245030	1370.836304
7681.573348	0.084884	0.245030	1447.062134
7681.574259	0.084869	0.245030	1524.378174
7681.575190	0.084866	0.245030	1603.388184
7681.576113	0.084917	0.245030	1681.766602
7681.577010	0.084954	0.245030	1757.969971
7681.577928	0.084954	0.245030	1835.957397
7681.578864	0.084811	0.245030	1915.340332
7682.620425	1.221764	0.220134	586.446655
7682.621333	0.608705	0.220134	1139.150635
7682.622266	0.086440	0.220134	1219.799561
7682.623155	0.084833	0.220134	1295.215942
7682.624102	0.084884	0.220134	1375.601074
7682.625021	0.084924	0.220134	1453.646484
7682.625920	0.084888	0.220134	1529.960571
7682.626852	0.084855	0.220134	1609.045166
7682.627762	0.084807	0.220134	1686.219604
7682.628685	0.084924	0.220134	1764.604736
7682.629574	0.084932	0.220134	1840.109009
7682.630536	0.084858	0.220134	1921.742798
7683.636174	1.166543	0.241811	514.445496
7683.637094	0.667471	0.241811	1128.518555
7683.637990	0.087535	0.241811	1206.950317
7683.638935	0.084957	0.241811	1287.234985
7683.639834	0.084895	0.241811	1363.555664
7683.640733	0.084902	0.241811	1439.882812
7683.641621	0.084807	0.241811	1515.191528
7683.642554	0.084935	0.241811	1594.436157
7683.643467	0.084789	0.241811	1671.848389
7683.644370	0.084891	0.241811	1748.505249
7683.645260	0.084840	0.241811	1824.012939
7683.646208	0.084928	0.241811	1904.524658
7684.688871	1.199993	0.222608	554.396606
7684.689781	0.638185	0.222608	1135.144775
7684.690703	0.086627	0.222608	1215.015015
7684.691645	0.084913	0.222608	1295.003418
7684.692562	0.084888	0.222608	1372.845459
7684.693450	0.084855	0.222608	1448.196411
7684.694372	0.084921	0.222608	1526.493286
7684.695303	0.084961	0.222608	1605.591919
7684.696217	0.084877	0.222608	1683.169189
7684.697106	0.084899	0.222608	1758.644165
7684.698047	0.084844	0.222608	1838.482178
7684.698983	0.084862	0.222608	1917.913086
7685.704661	1.163518	0.240357	520.092590
7685.705555	0.683240	0.240357	1130.908936
7685.706502	0.086796	0.240357	1213.104370
7685.707410	0.084822	0.240357	1290.122559
7685.708299	0.084869	0.240357	1365.571411
7685.709237	0.084858	0.240357	1445.168579
7685.710162	0.084851	0.240357	1523.655762
7685.711070	0.084880	0.240357	1600.727173
7685.711965	0.084877	0.240357	1676.691772
7685.712903	0.084888	0.240357	1756.316406
7685.713813	0.084851	0.240357	1833.530884
7685.714735	0.084880	0.240357	1911.790527
