time (s)	coil I (A)	last det (V)	int current (uC)
9224.491465	1.154758	0.320641	504.629395
9224.492438	1.657606	0.320641	2117.479980
9224.493361	0.713785	0.320641	2776.303955
9224.494286	0.087579	0.320641	2857.314941
9224.495176	0.084855	0.320641	2932.835693
9224.496127	0.084972	0.320641	3013.644043
9224.497021	0.084851	0.320641	3089.500977
9224.497911	0.084858	0.320641	3165.024902
9224.498860	0.085027	0.320641	3245.715332
9224.499757	0.084869	0.320641	3321.843262
9224.500668	0.084891	0.320641	3399.179199
9224.501573	0.084880	0.320641	3475.995850
9224.502516	0.084913	0.320641	3556.069092
9225.517516	1.175402	0.360163	516.001343
9225.518502	1.658097	0.360163	2150.884766
9225.519421	0.721296	0.360163	2813.756104
9225.520316	0.088396	0.360163	2892.870605
9225.521262	0.084924	0.360163	2973.208984
9225.522166	0.084932	0.360163	3049.987305
9225.523060	0.084851	0.360163	3125.844238
9225.523948	0.084965	0.360163	3201.292725
9225.524885	0.084943	0.360163	3280.884033
9225.525795	0.085038	0.360163	3358.268555
9225.526696	0.084965	0.360163	3434.821777
9225.527590	0.084946	0.360163	3510.763672
9225.528539	0.085031	0.360163	3591.457520
9226.564075	1.182220	0.306985	553.279175
9226.564984	1.656610	0.306985	2059.137695
9226.565882	0.817419	0.306985	2793.180420
9226.566818	0.090275	0.306985	2877.677490
9226.567757	0.084921	0.306985	2957.417969
9226.568672	0.085012	0.306985	3035.204102
9226.569559	0.084906	0.306985	3110.515625
9226.570491	0.084935	0.306985	3189.675293
9226.571427	0.084932	0.306985	3269.171387
9226.572353	0.084910	0.306985	3347.797852
9226.573251	0.084950	0.306985	3424.083008
9226.574195	0.084847	0.306985	3504.178955
9226.575108	0.084924	0.306985	3581.714844
9227.584971	1.161489	0.349657	509.893768
9227.585939	1.655984	0.349657	2112.886230
9227.586874	0.710277	0.349657	2776.995361
9227.587791	0.087521	0.349657	2857.251953
9227.588685	0.084946	0.349657	2933.193848
9227.589602	0.084954	0.349657	3011.096191
9227.590533	0.084902	0.349657	3090.140381
9227.591445	0.084950	0.349657	3167.614746
9227.592334	0.084825	0.349657	3243.024658
9227.593277	0.084910	0.349657	3323.094482
9227.594215	0.084983	0.349657	3402.808350
9227.595119	0.084935	0.349657	3479.589844
9227.596041	0.084928	0.349657	3557.893555
9228.632549	1.190328	0.304193	543.980042
9228.633453	1.656211	0.304193	2041.194824
9228.634348	0.844944	0.304193	2797.419434
9228.635293	0.089359	0.304193	2881.863770
9228.636210	0.084895	0.304193	2959.712402
9228.637133	0.084961	0.304193	3038.131348
9228.638034	0.084858	0.304193	3114.588867
9228.638993	0.084939	0.304193	3196.045410
9228.639898	0.084891	0.304193	3272.872070
9228.640824	0.084880	0.304193	3351.471191
9228.641718	0.084917	0.304193	3427.386963
9228.642673	0.084880	0.304193	3508.447754
9228.643597	0.084957	0.304193	3586.948242
9229.652436	1.183854	0.351438	533.918030
9229.653335	1.655673	0.351438	2022.367676
9229.654297	0.765681	0.351438	2758.952881
9229.655195	0.089136	0.351438	2838.996826
9229.656101	0.084921	0.351438	2915.935059
9229.656990	0.084961	0.351438	2991.465332
9229.657935	0.085052	0.351438	3071.839844
9229.658842	0.084928	0.351438	3148.869629
9229.659738	0.084928	0.351438	3224.965088
9229.660627	0.084924	0.351438	3300.462891
9229.661568	0.084994	0.351438	3380.442139
9229.662483	0.084884	0.351438	3458.111084
9229.663380	0.084961	0.351438	3534.321045
9230.701014	1.174039	0.315235	516.577271
9230.701920	1.655819	0.315235	2016.749390
9230.702838	0.829794	0.315235	2778.500000
9230.703729	0.091007	0.315235	2859.587402
9230.704686	0.084946	0.315235	2940.881104
9230.705594	0.084965	0.315235	3018.029053
9230.706488	0.084968	0.315235	3093.990723
9230.707408	0.084983	0.315235	3172.175049
9230.708320	0.084928	0.315235	3249.629395
9230.709219	0.084961	0.315235	3326.009277
9230.710110	0.084928	0.315235	3401.680176
9230.711046	0.084994	0.315235	3481.234375
9230.711961	0.084935	0.315235	3558.950195
9231.718908	1.194426	0.345697	584.074463
9231.719862	1.657716	0.345697	2165.535645
9231.720798	0.652874	0.345697	2776.625244
9231.721691	0.087228	0.345697	2854.519531
9231.722621	0.084906	0.345697	2933.482178
9231.723557	0.084891	0.345697	3012.940430
9231.724471	0.084943	0.345697	3090.577881
9231.725371	0.084913	0.345697	3167.000000
9231.726302	0.084968	0.345697	3246.105469
9231.727221	0.084778	0.345697	3324.016357
9231.728142	0.084961	0.345697	3402.265381
9231.729034	0.084888	0.345697	3477.985107
9231.729981	0.084957	0.345697	3558.439697
9232.770502	1.156772	0.314470	503.196045
9232.771398	1.654391	0.314470	1985.530273
9232.772396	0.729452	0.314470	2713.523193
9232.773328	0.087711	0.314470	2795.270020
9232.774217	0.084858	0.314470	2870.709229
9232.775174	0.084840	0.314470	2951.901123
9232.776088	0.084935	0.314470	3029.531982
9232.777002	0.084840	0.314470	3107.075928
9232.777898	0.084862	0.314470	3183.112305
9232.778833	0.084950	0.314470	3262.540527
9232.779754	0.084884	0.314470	3340.718750
9232.780677	0.084968	0.314470	3419.144531
9232.781565	0.084935	0.314470	3494.567139
9233.787374	1.206467	0.352843	564.626709
9233.788286	1.656687	0.352843	2075.525391
9233.789204	0.771764	0.352843	2784.004639
9233.790118	0.089425	0.352843	2865.739014
9233.791048	0.084976	0.352843	2944.766357
9233.791958	0.084840	0.352843	3021.970947
9233.792857	0.084924	0.352843	3098.317871
9233.793791	0.085074	0.352843	3177.777344
9233.794689	0.084891	0.352843	3254.009766
9233.795586	0.084968	0.352843	3330.226318
9233.796473	0.084902	0.352843	3405.534668
9233.797412	0.085031	0.352843	3485.378418
9233.798319	0.084998	0.352843	3562.471191
9234.838993	1.187223	0.312983	529.501404
9234.839975	1.657419	0.312983	2157.087402
9234.840903	0.688400	0.312983	2795.922363
9234.841793	0.087777	0.312983	2874.043945
9234.842715	0.084895	0.312983	2952.317139
9234.843655	0.084921	0.312983	3032.142578
9234.844570	0.084935	0.312983	3109.858398
9234.845464	0.084891	0.312983	3185.751221
9234.846419	0.084825	0.312983	3266.759521
9234.847358	0.084965	0.312983	3346.541260
9234.848275	0.084932	0.312983	3424.423584
9234.849165	0.084873	0.312983	3499.960693
9234.850112	0.084814	0.312983	3580.280029
9235.854855	1.208068	0.345105	599.201477
9235.855770	1.657617	0.345105	2115.921143
9235.856703	0.698155	0.345105	2767.300293
9235.857598	0.087997	0.345105	2846.057373
9235.858553	0.084924	0.345105	2927.160156
9235.859478	0.084910	0.345105	3005.701660
9235.860370	0.084906	0.345105	3081.437744
9235.861282	0.084899	0.345105	3158.865234
9235.862216	0.084836	0.345105	3238.102539
9235.863132	0.084913	0.345105	3315.883057
9235.864026	0.084961	0.345105	3391.838135
9235.864978	0.084987	0.345105	3472.745361
9235.865886	0.084913	0.345105	3549.846680
9236.904441	1.221306	0.325785	589.890869
9236.905354	1.656892	0.325785	2102.633301
9236.906296	0.710673	0.325785	2772.086914
9236.907189	0.088184	0.325785	2850.834961
9236.908144	0.084921	0.325785	2931.934082
9236.909045	0.084833	0.325785	3008.368408
9236.909936	0.084899	0.325785	3084.013184
9236.910890	0.084884	0.325785	3164.992676
9236.911800	0.084869	0.325785	3242.223877
9236.912723	0.084880	0.325785	3320.568359
9236.913610	0.084895	0.325785	3395.870117
9236.914559	0.084961	0.325785	3476.498047
9236.915478	0.084840	0.325785	3554.466064
9237.924314	1.181770	0.346116	529.432922
9237.925221	1.655724	0.346116	2031.174316
9237.926119	0.841351	0.346116	2786.707764
9237.927069	0.089099	0.346116	2871.352051
9237.927973	0.084851	0.346116	2948.057373
9237.928873	0.084858	0.346116	3024.429932
9237.929801	0.084899	0.346116	3103.215820
9237.930710	0.084910	0.346116	3180.398682
9237.931620	0.084862	0.346116	3257.623047
9237.932517	0.084888	0.346116	3333.767334
9237.933455	0.084935	0.346116	3413.436768
9237.934351	0.084814	0.346116	3489.430420
9237.935246	0.084928	0.346116	3565.440918
9238.972916	1.195869	0.316355	564.450195
9238.973825	1.656694	0.316355	2070.385254
9238.974730	0.795110	0.316355	2789.959717
9238.975689	0.088528	0.316355	2874.857910
9238.976630	0.084814	0.316355	2954.668213
9238.977521	0.084910	0.316355	3030.322754
9238.978442	0.084836	0.316355	3108.457031
9238.979383	0.084825	0.316355	3188.277832
9238.980301	0.084906	0.316355	3266.221436
9238.981197	0.084884	0.316355	3342.277588
9238.982136	0.084917	0.316355	3422.014648
9238.983075	0.084847	0.316355	3501.686279
9238.983979	0.084902	0.316355	3578.437988
9239.991763	1.164423	0.345073	519.332520
9239.992658	1.655262	0.345073	2000.792480
9239.993561	0.853744	0.345073	2771.723145
9239.994524	0.089081	0.345073	2857.508057
9239.995426	0.084873	0.345073	2934.063477
9239.996319	0.084862	0.345073	3009.845215
9239.997240	0.084987	0.345073	3088.117920
9239.998155	0.084851	0.345073	3165.756592
9239.999066	0.084869	0.345073	3243.072510
9239.999957	0.084836	0.345073	3318.661865
9240.000912	0.084987	0.345073	3399.823975
9240.001813	0.084873	0.345073	3476.294678
9240.002721	0.084990	0.345073	3553.465820
9241.041373	1.184725	0.325600	540.234741
9241.042268	1.655577	0.325600	2021.976562
9241.043231	0.752651	0.325600	2746.779785
9241.044141	0.088601	0.325600	2827.406738
9241.045047	0.084961	0.325600	2904.381348
9241.045932	0.084873	0.325600	2979.493896
9241.046895	0.084965	0.325600	3061.314697
9241.047802	0.084884	0.325600	3138.304443
9241.048703	0.084910	0.325600	3214.808105
9241.049635	0.084924	0.325600	3293.957520
9241.050534	0.084998	0.325600	3370.370361
9241.051435	0.084913	0.325600	3446.877197
9241.052320	0.084899	0.325600	3522.012451
9242.062325	1.228118	0.342833	579.671509
9242.063298	1.658115	0.342833	2193.017578
9242.064225	0.644073	0.342833	2790.073730
9242.065112	0.087323	0.342833	2867.529297
9242.066061	0.084825	0.342833	2948.028564
9242.066997	0.084866	0.342833	3027.462891
9242.067894	0.084829	0.342833	3103.554687
9242.068823	0.084803	0.342833	3182.337158
9242.069761	0.084939	0.342833	3262.010010
9242.070691	0.084873	0.342833	3340.941895
9242.071584	0.084917	0.342833	3416.772705
9242.072519	0.084946	0.342833	3496.197510
9242.073426	0.084965	0.342833	3573.260498
9243.107784	1.166916	0.324299	511.109436
9243.108762	1.656804	0.324299	2131.463867
9243.109692	0.697994	0.324299	2780.598633
9243.110583	0.087891	0.324299	2858.909180
9243.111504	0.084869	0.324299	2937.073975
9243.112455	0.084851	0.324299	3017.767334
9243.113375	0.084858	0.324299	3095.837158
9243.114262	0.084851	0.324299	3171.100098
9243.115205	0.084873	0.324299	3251.135254
9243.116134	0.084921	0.324299	3330.026611
9243.117024	0.084932	0.324299	3405.615723
9243.117945	0.084899	0.324299	3483.807373
9243.118872	0.084895	0.324299	3562.505127
9244.128754	1.184985	0.345282	565.237976
9244.129659	1.656830	0.345282	2064.668945
9244.130608	0.766106	0.345282	2791.703613
9244.131537	0.087726	0.345282	2873.200928
9244.132452	0.084906	0.345282	2950.889893
9244.133341	0.084906	0.345282	3026.371338
9244.134283	0.084906	0.345282	3106.352783
9244.135204	0.084910	0.345282	3184.554687
9244.136123	0.084998	0.345282	3262.667480
9244.137013	0.084803	0.345282	3338.142578
9244.137960	0.084836	0.345282	3418.482666
9244.138890	0.084906	0.345282	3497.445312
9244.139775	0.084913	0.345282	3572.593506
9245.177311	1.183854	0.317709	536.285767
9245.178219	1.656163	0.317709	2040.082031
9245.179120	0.836276	0.317709	2793.566406
9245.180079	0.090989	0.317709	2880.824707
9245.180987	0.084939	0.317709	2957.949219
9245.181903	0.084913	0.317709	3035.729736
9245.182790	0.084917	0.317709	3111.051025
9245.183723	0.084935	0.317709	3190.295654
9245.184640	0.084847	0.317709	3268.100830
9245.185559	0.084891	0.317709	3346.115967
9245.186452	0.084899	0.317709	3421.930420
9245.187410	0.084869	0.317709	3503.235352
9245.188313	0.084877	0.317709	3579.878906
9246.197215	1.185524	0.341975	538.227783
9246.198117	1.655808	0.341975	2031.766724
9246.199013	0.845753	0.341975	2789.561523
9246.199962	0.089037	0.341975	2874.057617
9246.200866	0.084858	0.341975	2950.769531
9246.201760	0.084987	0.341975	3026.747559
9246.202666	0.084888	0.341975	3103.655762
9246.203594	0.084884	0.341975	3182.428223
9246.204493	0.084968	0.341975	3258.814697
9246.205383	0.084895	0.341975	3334.371338
9246.206330	0.085016	0.341975	3414.881348
9246.207241	0.084891	0.341975	3492.217285
9246.208137	0.084924	0.341975	3568.309570
9247.244745	1.154634	0.326249	499.956421
9247.245704	1.654677	0.326249	2086.791260
9247.246621	0.757998	0.326249	2781.875488
9247.247520	0.088975	0.326249	2861.863770
9247.248410	0.084869	0.326249	2937.397461
9247.249346	0.085012	0.326249	3016.968994
9247.250246	0.084910	0.326249	3093.387695
9247.251151	0.084891	0.326249	3170.214355
9247.252039	0.084957	0.326249	3245.656494
9247.252977	0.085042	0.326249	3325.425537
9247.253884	0.084855	0.326249	3402.388672
9247.254775	0.084943	0.326249	3478.072510
9247.255721	0.084998	0.326249	3558.480225
9248.265710	1.191390	0.348598	556.379333
9248.266616	1.656277	0.348598	2056.966064
9248.267559	0.751476	0.348598	2765.607666
9248.268515	0.087759	0.348598	2849.505127
9248.269431	0.084869	0.348598	2927.245605
9248.270321	0.084862	0.348598	3002.772949
9248.271279	0.084884	0.348598	3084.091797
9248.272215	0.084858	0.348598	3163.519287
9248.273109	0.084917	0.348598	3239.435059
9248.274040	0.084869	0.348598	3318.448486
9248.274985	0.084855	0.348598	3398.636230
9248.275911	0.084917	0.348598	3477.269287
9248.276812	0.084851	0.348598	3553.720215
9249.314261	1.185571	0.319038	532.321533
9249.315203	1.657130	0.319038	2093.338135
9249.316104	0.791624	0.319038	2806.590820
9249.317049	0.088561	0.319038	2890.280762
9249.317962	0.084910	0.319038	2967.803223
9249.318881	0.084910	0.319038	3045.835205
9249.319766	0.084869	0.319038	3120.944580
9249.320717	0.084851	0.319038	3201.637939
9249.321637	0.084913	0.319038	3279.758301
9249.322525	0.084869	0.319038	3355.122314
9249.323470	0.084877	0.319038	3435.330811
9249.324365	0.084873	0.319038	3511.292236
9249.325274	0.084906	0.319038	3588.471680
9250.331085	1.162994	0.350934	514.043518
9250.331979	1.654446	0.350934	1993.117920
9250.332961	0.758434	0.350934	2737.899902
9250.333866	0.088942	0.350934	2818.392090
9250.334755	0.084950	0.350934	2893.912598
9250.335683	0.084954	0.350934	2972.749512
9250.336600	0.084928	0.350934	3050.628418
9250.337510	0.084932	0.350934	3127.916260
9250.338404	0.084965	0.350934	3203.874512
9250.339331	0.084965	0.350934	3282.636719
9250.340247	0.084910	0.350934	3360.414062
9250.341150	0.084906	0.350934	3437.084229
9250.342040	0.084895	0.350934	3512.640869
9251.382737	1.170883	0.320762	519.871887
9251.383659	1.656046	0.320762	2046.746338
9251.384560	0.828497	0.320762	2793.222412
9251.385507	0.089839	0.320762	2878.299805
9251.386408	0.084855	0.320762	2954.753906
9251.387304	0.084906	0.320762	3030.829590
9251.388191	0.084950	0.320762	3106.180176
9251.389121	0.085027	0.320762	3185.255127
9251.390028	0.084921	0.320762	3262.278076
9251.390926	0.084895	0.320762	3338.513916
9251.391857	0.085016	0.320762	3417.663574
9251.392760	0.085005	0.320762	3494.423096
9251.393663	0.084946	0.320762	3571.129639
9252.399560	1.152946	0.345919	501.531311
9252.400507	1.654713	0.345919	2068.544678
9252.401455	0.730803	0.345919	2761.346191
9252.402379	0.087579	0.345919	2842.269531
9252.403271	0.084858	0.345919	2917.963135
9252.404213	0.084807	0.345919	2997.851562
9252.405151	0.084891	0.345919	3077.479736
9252.406055	0.084851	0.345919	3154.185059
9252.406966	0.084913	0.345919	3231.541016
9252.407905	0.084858	0.345919	3311.223145
9252.408838	0.084869	0.345919	3390.406250
9252.409743	0.084800	0.345919	3467.150146
9252.410651	0.084880	0.345919	3544.221436
9253.451249	1.178342	0.317749	557.355957
9253.452153	1.656240	0.317749	2054.597168
9253.453101	0.777627	0.317749	2791.787598
9253.454017	0.087799	0.317749	2872.211426
9253.454946	0.084917	0.317749	2951.099365
9253.455842	0.084972	0.317749	3027.234131
9253.456760	0.084917	0.317749	3105.187988
9253.457700	0.084913	0.317749	3185.006592
9253.458619	0.084954	0.317749	3263.078857
9253.459511	0.084891	0.317749	3338.802002
9253.460473	0.084873	0.317749	3420.449951
9253.461403	0.084965	0.317749	3499.467041
9253.462306	0.084983	0.317749	3576.206543
9254.468041	1.154400	0.355454	504.472595
9254.468999	1.657013	0.355454	2091.891113
9254.469933	0.737227	0.355454	2780.460693
9254.470841	0.088217	0.355454	2860.561279
9254.471731	0.084994	0.355454	2936.205811
9254.472688	0.084910	0.355454	3017.464355
9254.473587	0.084987	0.355454	3093.867187
9254.474476	0.084943	0.355454	3169.381104
9254.475397	0.084987	0.355454	3247.653809
9254.476306	0.085034	0.355454	3324.949951
9254.477201	0.084888	0.355454	3400.924316
9254.478091	0.084917	0.355454	3476.500488
9254.479030	0.085074	0.355454	3556.385498
9255.519710	1.188867	0.309926	542.123474
9255.520610	1.655936	0.309926	2032.466064
9255.521567	0.766820	0.309926	2766.312744
9255.522479	0.088484	0.309926	2847.010010
9255.523380	0.084862	0.309926	2923.470703
9255.524271	0.084869	0.309926	2999.089355
9255.525212	0.084961	0.309926	3079.037598
9255.526110	0.084869	0.309926	3155.250244
9255.527013	0.084957	0.309926	3231.966553
9255.527904	0.084899	0.309926	3307.611328
9255.528834	0.084987	0.309926	3386.648926
9255.529740	0.084833	0.309926	3463.507324
9255.530639	0.084957	0.309926	3539.884033
9256.536545	1.173010	0.348714	529.027588
9256.537450	1.655680	0.348714	2027.417969
9256.538349	0.849086	0.348714	2790.746094
9256.539296	0.091443	0.348714	2877.342529
9256.540216	0.084877	0.348714	2955.429199
9256.541126	0.084847	0.348714	3032.640381
9256.542022	0.084935	0.348714	3108.742432
9256.542958	0.084844	0.348714	3188.156250
9256.543875	0.084954	0.348714	3266.058594
9256.544793	0.085020	0.348714	3344.106445
9256.545680	0.084902	0.348714	3419.414795
9256.546635	0.084928	0.348714	3500.520996
9256.547558	0.084844	0.348714	3578.831787
9257.586147	1.190123	0.315896	541.506042
9257.587048	1.655995	0.315896	2033.557373
9257.587947	0.839780	0.315896	2788.519775
9257.588907	0.089004	0.315896	2873.963623
9257.589809	0.084833	0.315896	2950.482666
9257.590701	0.084869	0.315896	3026.186035
9257.591629	0.084910	0.315896	3104.982178
9257.592537	0.084880	0.315896	3182.053467
9257.593449	0.085009	0.315896	3259.581299
9257.594343	0.084873	0.315896	3335.457764
9257.595278	0.085001	0.315896	3414.933838
9257.596195	0.084961	0.315896	3492.843018
9257.597097	0.084961	0.315896	3569.477783
9258.605022	1.179833	0.358415	528.565125
9258.605943	1.655768	0.358415	2053.527344
9258.606843	0.820572	0.358415	2792.042480
9258.607789	0.090428	0.358415	2877.587891
9258.608692	0.084946	0.358415	2954.294434
9258.609594	0.084968	0.358415	3030.935791
9258.610481	0.084998	0.358415	3106.328613
9258.611419	0.085038	0.358415	3186.093994
9258.612318	0.085031	0.358415	3262.536377
9258.613216	0.084910	0.358415	3338.785156
9258.614100	0.084954	0.358415	3413.884033
9258.615043	0.084946	0.358415	3493.988281
9258.615947	0.084943	0.358415	3570.776367
9259.653615	1.206606	0.311602	559.865356
9259.654539	1.656453	0.311602	2090.427734
9259.655474	0.738838	0.311602	2781.241211
9259.656365	0.088748	0.311602	2860.315186
9259.657296	0.084888	0.311602	2939.345703
9259.658233	0.084899	0.311602	3018.895752
9259.659130	0.084932	0.311602	3095.079346
9259.660046	0.084847	0.311602	3172.799561
9259.660984	0.084957	0.311602	3252.489502
9259.661904	0.084983	0.311602	3330.673828
9259.662796	0.084902	0.311602	3406.406738
9259.663752	0.084921	0.311602	3487.590820
9259.664688	0.084972	0.311602	3567.124512
9260.675592	1.193148	0.353037	594.187805
9260.676506	1.657515	0.353037	2109.156250
9260.677431	0.715056	0.353037	2770.583252
9260.678325	0.088224	0.353037	2849.455322
9260.679269	0.084866	0.353037	2929.568604
9260.680190	0.084844	0.353037	3007.709717
9260.681112	0.084891	0.353037	3085.979492
9260.682005	0.084939	0.353037	3161.830078
9260.682949	0.084913	0.353037	3241.988281
9260.683870	0.084906	0.353037	3320.186768
9260.684758	0.084928	0.353037	3395.602783
9260.685702	0.084873	0.353037	3475.722900
9260.686608	0.084928	0.353037	3552.667725
9261.720011	1.160929	0.312858	507.325958
9261.720910	1.654402	0.312858	1994.633179
9261.721885	0.761078	0.312858	2736.684082
9261.722786	0.088938	0.312858	2816.817139
9261.723681	0.084928	0.312858	2892.827637
9261.724625	0.085016	0.312858	2973.082520
9261.725530	0.084987	0.312858	3049.995361
9261.726426	0.084880	0.312858	3126.048096
9261.727314	0.084935	0.312858	3201.470703
9261.728264	0.084979	0.312858	3282.200928
9261.729165	0.084961	0.312858	3358.750732
9261.730068	0.084924	0.312858	3435.437500
9261.730960	0.084954	0.312858	3511.216064
9262.744046	1.199473	0.354745	564.951599
9262.744961	1.656951	0.354745	2081.061523
9262.745861	0.797450	0.354745	2798.766602
9262.746790	0.089275	0.354745	2881.702881
9262.747731	0.084847	0.354745	2961.544189
9262.748652	0.084968	0.354745	3039.800049
9262.749540	0.084906	0.354745	3115.196533
9262.750474	0.084972	0.354745	3194.560303
9262.751413	0.084833	0.354745	3274.218262
9262.752331	0.084965	0.354745	3352.215820
9262.753226	0.084899	0.354745	3428.200195
9262.754171	0.084928	0.354745	3508.457031
9262.755114	0.084851	0.354745	3588.471680
9263.788485	1.153887	0.314671	500.786865
9263.789431	1.654728	0.314671	2066.159424
9263.790389	0.724735	0.314671	2760.455566
9263.791305	0.087832	0.314671	2840.909668
9263.792193	0.084873	0.314671	2916.276855
9263.793137	0.084891	0.314671	2996.414307
9263.794080	0.084884	0.314671	3076.459961
9263.794981	0.084968	0.314671	3153.016357
9263.795901	0.084877	0.314671	3231.103027
9263.796830	0.084899	0.314671	3309.973877
9263.797753	0.084880	0.314671	3388.318359
9263.798650	0.084921	0.314671	3464.492187
9263.799575	0.084899	0.314671	3543.023437
9264.813539	1.178866	0.349178	536.384033
9264.814438	1.655724	0.349178	2024.879761
9264.815418	0.742240	0.349178	2752.274902
9264.816322	0.088209	0.349178	2832.016113
9264.817229	0.084943	0.349178	2909.059082
9264.818127	0.084906	0.349178	2985.304687
9264.819070	0.084822	0.349178	3065.291504
9264.819995	0.084913	0.349178	3143.836426
9264.820897	0.084957	0.349178	3220.467773
9264.821817	0.084921	0.349178	3298.594727
9264.822746	0.084906	0.349178	3377.472412
9264.823669	0.084921	0.349178	3455.854248
9264.824562	0.084946	0.349178	3531.711182
9265.853902	1.161002	0.320979	506.196930
9265.854862	1.655812	0.320979	2095.776123
9265.855781	0.751681	0.320979	2786.570801
9265.856699	0.088147	0.320979	2867.489746
9265.857599	0.084855	0.320979	2943.858887
9265.858552	0.084954	0.320979	3024.819580
9265.859455	0.084869	0.320979	3101.456543
9265.860351	0.084888	0.320979	3177.515869
9265.861276	0.084957	0.320979	3256.101318
9265.862185	0.084858	0.320979	3333.237549
9265.863079	0.084968	0.320979	3409.199219
9265.863972	0.084954	0.320979	3485.062744
9265.864916	0.084913	0.320979	3565.220947
9266.880996	1.200051	0.349742	552.023621
9266.881915	1.656112	0.349742	2073.990723
9266.882828	0.781677	0.349742	2787.662109
9266.883772	0.089213	0.349742	2871.878906
9266.884678	0.084932	0.349742	2948.826904
9266.885577	0.084891	0.349742	3025.144287
9266.886468	0.084899	0.349742	3100.789062
9266.887414	0.084998	0.349742	3181.196777
9266.888318	0.084888	0.349742	3257.935303
9266.889215	0.084877	0.349742	3334.069824
9266.890109	0.084950	0.349742	3410.015137
9266.891040	0.085001	0.349742	3489.151367
9266.891957	0.084917	0.349742	3567.020264
9267.922380	1.159702	0.318595	509.109192
9267.923342	1.656152	0.318595	2102.327881
9267.924276	0.721820	0.318595	2776.507812
9267.925171	0.088224	0.318595	2855.468262
9267.926088	0.084814	0.318595	2933.243164
9267.927030	0.084939	0.318595	3013.255615
9267.927958	0.084924	0.318595	3092.065430
9267.928861	0.084891	0.318595	3168.722412
9267.929784	0.084983	0.318595	3247.161621
9267.930699	0.084924	0.318595	3324.867432
9267.931598	0.084987	0.318595	3401.270264
9267.932495	0.084869	0.318595	3477.398193
9267.933411	0.084917	0.318595	3555.182129
9268.950470	1.156003	0.345613	505.173462
9268.951364	1.654244	0.345613	1984.067871
9268.952352	0.746788	0.345613	2721.894775
9268.953288	0.087964	0.345613	2804.229004
9268.954192	0.084822	0.345613	2880.907959
9268.955114	0.084895	0.345613	2959.181152
9268.956055	0.084811	0.345613	3038.988037
9268.956975	0.084855	0.345613	3117.054443
9268.957861	0.084972	0.345613	3192.339600
9268.958796	0.084950	0.345613	3271.767822
9268.959729	0.084913	0.345613	3350.991943
9268.960637	0.084869	0.345613	3428.053223
9268.961531	0.084932	0.345613	3503.982178
9269.990908	1.192921	0.326128	582.145508
9269.991817	1.657225	0.326128	2088.563477
9269.992760	0.718612	0.326128	2766.214600
9269.993644	0.088469	0.326128	2844.421387
9269.994591	0.084814	0.326128	2924.740723
9269.995493	0.084862	0.326128	3001.286377
9269.996403	0.084965	0.326128	3078.604248
9269.997298	0.084946	0.326128	3154.631104
9269.998246	0.084968	0.326128	3235.180908
9269.999157	0.084825	0.326128	3312.456787
9270.000045	0.084851	0.326128	3387.804443
9270.000987	0.084990	0.326128	3467.865234
9270.001909	0.084836	0.326128	3546.084473
9271.017952	1.182539	0.343063	535.690186
9271.018852	1.655592	0.343063	2025.723022
9271.019746	0.860460	0.343063	2794.974365
9271.020688	0.089520	0.343063	2879.302490
9271.021603	0.084822	0.343063	2956.914307
9271.022505	0.084884	0.343063	3033.479736
9271.023398	0.084965	0.343063	3109.353027
9271.024343	0.085042	0.343063	3189.717285
9271.025247	0.084858	0.343063	3266.429199
9271.026134	0.084928	0.343063	3341.760254
9271.027060	0.085001	0.343063	3420.471436
9271.027966	0.084983	0.343063	3497.466064
9271.028863	0.084943	0.343063	3573.659668
9272.059402	1.234409	0.323014	620.907837
9272.060342	1.657727	0.323014	2179.171387
9272.061279	0.657448	0.323014	2795.199707
9272.062166	0.087378	0.323014	2872.703857
9272.063120	0.084873	0.323014	2953.672852
9272.064057	0.084906	0.323014	3033.229736
9272.064956	0.084965	0.323014	3109.612793
9272.065880	0.084979	0.323014	3188.133545
9272.066817	0.084858	0.323014	3267.645752
9272.067753	0.084873	0.323014	3347.086914
9272.068652	0.084957	0.323014	3423.463623
9272.069582	0.084939	0.323014	3502.456787
9272.070482	0.084994	0.323014	3578.951172
9273.084362	1.171937	0.344618	512.136597
9273.085342	1.657354	0.344618	2136.343018
9273.086272	0.686704	0.344618	2774.977783
9273.087201	0.087169	0.344618	2855.958008
9273.088091	0.084965	0.344618	2931.576416
9273.089030	0.084836	0.344618	3011.237793
9273.089959	0.084866	0.344618	3090.078125
9273.090850	0.084968	0.344618	3165.784912
9273.091778	0.084950	0.344618	3244.618408
9273.092715	0.085023	0.344618	3324.285156
9273.093624	0.084968	0.344618	3401.521240
9273.094516	0.084961	0.344618	3477.306396
9273.095453	0.084946	0.344618	3556.901123
9274.127833	1.179093	0.327272	525.875488
9274.128742	1.655724	0.327272	2030.928467
9274.129641	0.847808	0.327272	2793.107422
9274.130589	0.090989	0.327272	2879.364746
9274.131515	0.084928	0.327272	2958.008057
9274.132438	0.084921	0.327272	3036.389893
9274.133331	0.084877	0.327272	3112.184814
9274.134285	0.085027	0.327272	3193.300537
9274.135180	0.084917	0.327272	3269.301270
9274.136106	0.084990	0.327272	3348.002197
9274.136995	0.085005	0.327272	3423.571533
9274.137941	0.084987	0.327272	3503.968750
9274.138848	0.085056	0.327272	3581.114746
9275.151819	1.155754	0.345182	500.441681
9275.152775	1.654321	0.345182	2081.972900
9275.153703	0.764059	0.345182	2791.019531
9275.154618	0.088934	0.345182	2872.394531
9275.155511	0.084954	0.345182	2948.258057
9275.156454	0.084928	0.345182	3028.345215
9275.157352	0.085027	0.345182	3104.699219
9275.158250	0.084965	0.345182	3180.997314
9275.159140	0.084990	0.345182	3256.638672
9275.160066	0.084943	0.345182	3335.295654
9275.160976	0.084858	0.345182	3412.516846
9275.161879	0.084906	0.345182	3489.187012
9275.162769	0.084902	0.345182	3564.750000
9276.197322	1.161097	0.325572	509.721771
9276.198217	1.654270	0.325572	1990.293457
9276.199208	0.755094	0.325572	2738.591553
9276.200144	0.088180	0.325572	2821.127930
9276.201043	0.084873	0.325572	2897.428711
9276.201966	0.084965	0.325572	2975.851074
9276.202884	0.084932	0.325572	3053.818359
9276.203810	0.084968	0.325572	3132.499023
9276.204706	0.084899	0.325572	3208.568359
9276.205620	0.085009	0.325572	3286.266113
9276.206562	0.084884	0.325572	3366.226807
9276.207481	0.084961	0.325572	3444.305908
9276.208372	0.084858	0.325572	3519.914795
9277.220300	1.170176	0.346616	513.707092
9277.221266	1.656588	0.346616	2113.971191
9277.222199	0.715668	0.346616	2781.689209
9277.223093	0.088173	0.346616	2860.515625
9277.224030	0.084825	0.346616	2939.997070
9277.224944	0.084924	0.346616	3017.617920
9277.225863	0.084939	0.346616	3095.676758
9277.226759	0.084961	0.346616	3171.801758
9277.227719	0.084990	0.346616	3253.392334
9277.228619	0.084983	0.346616	3329.876953
9277.229532	0.084910	0.346616	3407.399414
9277.230420	0.084855	0.346616	3482.750488
9277.231376	0.084939	0.346616	3563.952148
9278.265802	1.165767	0.324214	514.103088
9278.266779	1.657661	0.324214	2133.637939
9278.267687	0.737025	0.324214	2802.856689
9278.268580	0.088561	0.324214	2881.941406
9278.269504	0.084858	0.324214	2960.350586
9278.270439	0.084979	0.324214	3039.806152
9278.271346	0.084976	0.324214	3116.878906
9278.272233	0.084968	0.324214	3192.245850
9278.273187	0.085009	0.324214	3273.343994
9278.274089	0.084957	0.324214	3349.975342
9278.274985	0.085023	0.324214	3426.156250
9278.275871	0.084998	0.324214	3501.464111
9278.276801	0.085071	0.324214	3580.579834
9279.287754	1.166931	0.344368	512.282776
9279.288751	1.657394	0.344368	2164.704346
9279.289681	0.663365	0.344368	2781.634277
9279.290577	0.087433	0.344368	2859.974121
9279.291495	0.084968	0.344368	2937.975098
9279.292429	0.084888	0.344368	3017.260254
9279.293345	0.084924	0.344368	3095.051025
9279.294233	0.084913	0.344368	3170.454102
9279.295180	0.084862	0.344368	3250.818359
9279.296110	0.084924	0.344368	3329.797852
9279.297031	0.084866	0.344368	3407.959229
9279.297926	0.084899	0.344368	3483.943604
9279.298860	0.084939	0.344368	3563.276611
9280.333259	1.164349	0.326643	511.149353
9280.334228	1.657328	0.326643	2117.100098
9280.335175	0.694801	0.326643	2775.076660
9280.336077	0.087557	0.326643	2854.053467
9280.337011	0.084895	0.326643	2933.345459
9280.337932	0.084869	0.326643	3011.510254
9280.338854	0.084844	0.326643	3089.736084
9280.339746	0.084811	0.326643	3165.387207
9280.340692	0.084928	0.326643	3245.729004
9280.341596	0.084928	0.326643	3322.503906
9280.342509	0.084899	0.326643	3400.016357
9280.343407	0.084851	0.326643	3476.212646
9280.344328	0.084888	0.326643	3554.394287
9281.355207	1.163415	0.346430	508.412537
9281.356195	1.656116	0.346430	2144.654785
9281.357121	0.700225	0.346430	2793.062744
9281.358014	0.088015	0.346430	2871.660156
9281.358900	0.084906	0.346430	2946.886963
9281.359836	0.084983	0.346430	3026.430908
9281.360738	0.084906	0.346430	3103.016113
9281.361632	0.084913	0.346430	3178.928711
9281.362559	0.084994	0.346430	3257.718018
9281.363466	0.084910	0.346430	3334.731201
9281.364372	0.084880	0.346430	3411.632812
9281.365264	0.085005	0.346430	3487.457275
9281.366200	0.085001	0.346430	3567.018311
9282.401747	1.173717	0.326261	519.956665
9282.402704	1.657163	0.326261	2105.861816
9282.403636	0.726361	0.326261	2782.830322
9282.404532	0.088411	0.326261	2862.046143
9282.405474	0.084946	0.326261	2942.065430
9282.406365	0.084965	0.326261	3017.768799
9282.407264	0.084913	0.326261	3094.105957
9282.408158	0.084950	0.326261	3170.051270
9282.409099	0.084957	0.326261	3249.996094
9282.409999	0.084983	0.326261	3326.480713
9282.410902	0.084946	0.326261	3403.187256
9282.411789	0.084943	0.326261	3478.531250
9282.412738	0.084935	0.326261	3559.134766
9283.424748	1.201728	0.345133	551.593384
9283.425681	1.656541	0.345133	2097.145508
9283.426574	0.790906	0.345133	2803.424316
9283.427511	0.088330	0.345133	2886.189697
9283.428454	0.084880	0.345133	2966.231934
9283.429384	0.084880	0.345133	3045.170654
9283.430276	0.084950	0.345133	3120.946045
9283.431229	0.084814	0.345133	3201.774170
9283.432164	0.084877	0.345133	3281.133789
9283.433064	0.084954	0.345133	3357.592041
9283.433991	0.084836	0.345133	3436.235352
9283.434926	0.084910	0.345133	3515.625977
9283.435846	0.084976	0.345133	3593.803467
9284.469201	1.176724	0.326289	522.465332
9284.470169	1.656716	0.326289	2126.166748
9284.471077	0.740453	0.326289	2798.498047
9284.471964	0.088890	0.326289	2877.343750
9284.472906	0.084899	0.326289	2957.318359
9284.473808	0.084891	0.326289	3033.890381
9284.474729	0.084928	0.326289	3112.109131
9284.475626	0.084924	0.326289	3188.286133
9284.476576	0.084983	0.326289	3269.020020
9284.477490	0.084877	0.326289	3346.597412
9284.478388	0.084976	0.326289	3422.905518
9284.479307	0.084957	0.326289	3500.981201
9284.480235	0.084932	0.326289	3579.797852
9285.493200	1.166418	0.344432	516.723389
9285.494094	1.654845	0.344432	1996.154663
9285.495032	0.849031	0.344432	2792.545410
9285.495946	0.089963	0.344432	2874.771973
9285.496850	0.084862	0.344432	2951.487305
9285.497747	0.085034	0.344432	3027.762939
9285.498687	0.085027	0.344432	3107.688232
9285.499586	0.084957	0.344432	3184.064941
9285.500485	0.084965	0.344432	3260.447998
9285.501373	0.084946	0.344432	3335.880371
9285.502314	0.084965	0.344432	3415.832031
9285.503226	0.084928	0.344432	3493.286377
9285.504126	0.084943	0.344432	3569.734863
9286.537668	1.151818	0.326365	497.585175
9286.538640	1.656606	0.326365	2107.806641
9286.539570	0.722402	0.326365	2779.640869
9286.540470	0.088282	0.326365	2859.095215
9286.541359	0.084869	0.326365	2934.544189
9286.542308	0.085093	0.326365	3015.297119
9286.543213	0.084972	0.326365	3092.196777
9286.544107	0.084921	0.326365	3168.115723
9286.545052	0.085001	0.326365	3248.441895
9286.545947	0.085023	0.326365	3324.537598
9286.546852	0.084884	0.326365	3401.357666
9286.547742	0.084917	0.326365	3476.933838
9286.548684	0.084987	0.326365	3556.991211
9287.561702	1.184414	0.347055	537.723999
9287.562602	1.655760	0.347055	2027.908325
9287.563540	0.784182	0.347055	2763.471191
9287.564479	0.088689	0.347055	2846.750244
9287.565398	0.084913	0.347055	2924.785645
9287.566285	0.084866	0.347055	3000.061523
9287.567224	0.084987	0.347055	3079.864014
9287.568161	0.084972	0.347055	3159.482666
9287.569058	0.084968	0.347055	3235.699219
9287.569976	0.084891	0.347055	3313.629395
9287.570906	0.084869	0.347055	3392.557861
9287.571851	0.084946	0.347055	3472.832031
9287.572745	0.084928	0.347055	3548.757568
9288.605139	1.166682	0.325785	513.340149
9288.606097	1.654790	0.325785	2098.628906
9288.607019	0.736736	0.325785	2777.899414
9288.607946	0.087872	0.325785	2859.356934
9288.608838	0.084910	0.325785	2935.096436
9288.609773	0.084855	0.325785	3014.435547
9288.610682	0.084928	0.325785	3091.635010
9288.611599	0.084950	0.325785	3169.534180
9288.612492	0.084961	0.325785	3245.404297
9288.613442	0.084961	0.325785	3326.117187
9288.614367	0.084957	0.325785	3404.702637
9288.615259	0.084961	0.325785	3480.487793
9288.616198	0.084884	0.325785	3560.193848
9289.631197	1.180012	0.345943	538.085571
9289.632149	1.657603	0.345943	2116.123047
9289.633077	0.716517	0.345943	2781.051270
9289.633971	0.088246	0.345943	2859.943115
9289.634908	0.084968	0.345943	2939.558350
9289.635811	0.084961	0.345943	3016.278076
9289.636712	0.084957	0.345943	3092.824707
9289.637602	0.084822	0.345943	3168.316162
9289.638550	0.084943	0.345943	3248.841797
9289.639458	0.084954	0.345943	3325.979736
9289.640352	0.084899	0.345943	3401.879150
9289.641281	0.084935	0.345943	3480.783936
9289.642187	0.085104	0.345943	3557.887939
9290.672592	1.160105	0.326200	505.805725
9290.673493	1.654578	0.326200	1996.580078
9290.674457	0.783951	0.326200	2752.309082
9290.675383	0.088334	0.326200	2834.106201
9290.676281	0.084965	0.326200	2910.404297
9290.677195	0.084906	0.326200	2988.008301
9290.678134	0.084917	0.326200	3067.745361
9290.679057	0.084917	0.326200	3146.123779
9290.679947	0.084891	0.326200	3221.677002
9290.680900	0.084866	0.326200	3302.553955
9290.681833	0.084888	0.326200	3381.754150
9290.682736	0.085023	0.326200	3458.530029
9290.683635	0.084917	0.326200	3534.870361
9291.699701	1.201036	0.347728	577.698547
9291.700639	1.657522	0.347728	2132.454102
9291.701577	0.675868	0.347728	2766.418213
9291.702474	0.087583	0.347728	2844.980225
9291.703425	0.084822	0.347728	2925.645752
9291.704359	0.084899	0.347728	3004.941162
9291.705258	0.084910	0.347728	3081.274902
9291.706189	0.084888	0.347728	3160.305420
9291.707133	0.084932	0.347728	3240.480957
9291.708048	0.084998	0.347728	3318.253662
9291.708939	0.084855	0.347728	3393.859131
9291.709884	0.084928	0.347728	3474.115967
9291.710819	0.084833	0.347728	3553.434570
9292.741064	1.167144	0.321419	512.376038
9292.742054	1.657906	0.321419	2153.703369
9292.742969	0.701569	0.321419	2795.638672
9292.743857	0.088063	0.321419	2873.838379
9292.744790	0.084954	0.321419	2953.100098
9292.745689	0.084899	0.321419	3029.424072
9292.746584	0.084771	0.321419	3105.293701
9292.747468	0.084796	0.321419	3180.253418
9292.748411	0.084924	0.321419	3260.337158
9292.749328	0.084987	0.321419	3338.269775
9292.750232	0.084943	0.321419	3415.057861
9292.751123	0.084891	0.321419	3490.696045
9292.752080	0.084979	0.321419	3572.021240
9293.767115	1.162222	0.353851	510.215302
9293.768092	1.657665	0.353851	2129.753662
9293.769019	0.715536	0.353851	2793.055420
9293.769908	0.088213	0.353851	2871.476562
9293.770822	0.084928	0.353851	2949.100830
9293.771741	0.085056	0.353851	3027.267334
9293.772657	0.084866	0.353851	3105.004395
9293.773555	0.085016	0.353851	3181.348633
9293.774477	0.085074	0.353851	3259.787354
9293.775394	0.084979	0.353851	3337.713379
9293.776306	0.084932	0.353851	3415.171143
9293.777199	0.084946	0.353851	3491.028076
9293.778151	0.085027	0.353851	3571.973633
9294.808522	1.156758	0.321141	506.659943
9294.809460	1.654255	0.321141	2058.351562
9294.810406	0.760221	0.321141	2777.520508
9294.811328	0.088066	0.321141	2858.717773
9294.812231	0.084983	0.321141	2935.457275
9294.813154	0.084950	0.321141	3013.865967
9294.814100	0.085001	0.321141	3094.277100
9294.815017	0.084987	0.321141	3172.209717
9294.815905	0.084877	0.321141	3247.580322
9294.816851	0.084939	0.321141	3327.932617
9294.817780	0.084869	0.321141	3406.776367
9294.818680	0.085005	0.321141	3483.280762
9294.819613	0.084961	0.321141	3562.549316
9295.835611	1.179580	0.351587	527.272278
9295.836515	1.655522	0.351587	2023.864502
9295.837416	0.850602	0.351587	2790.256836
9295.838349	0.091208	0.351587	2875.354248
9295.839253	0.084844	0.351587	2952.052979
9295.840175	0.084847	0.351587	3030.282227
9295.841066	0.084910	0.351587	3105.936768
9295.842021	0.084954	0.351587	3187.067383
9295.842921	0.084847	0.351587	3263.430176
9295.843843	0.084979	0.351587	3341.781006
9295.844731	0.084968	0.351587	3417.232910
9295.845677	0.084902	0.351587	3497.550537
9295.846583	0.084950	0.351587	3574.515137
9296.875979	1.158992	0.321068	506.479370
9296.876877	1.654113	0.321068	1991.872437
9296.877851	0.768981	0.321068	2740.859619
9296.878766	0.088755	0.321068	2822.070312
9296.879661	0.084833	0.321068	2897.995605
9296.880590	0.084913	0.321068	2976.880127
9296.881494	0.085009	0.321068	3053.727783
9296.882403	0.084928	0.321068	3130.927246
9296.883295	0.084932	0.321068	3206.686279
9296.884230	0.085005	0.321068	3286.165771
9296.885126	0.084965	0.321068	3362.293945
9296.886030	0.084899	0.321068	3439.042236
9296.886916	0.084917	0.321068	3514.278809
9297.902026	1.163745	0.358930	512.047852
9297.902933	1.654530	0.358930	2012.706665
9297.903907	0.734546	0.358930	2728.154297
9297.904851	0.087777	0.358930	2811.015869
9297.905747	0.084965	0.358930	2887.144043
9297.906668	0.084972	0.358930	2965.403076
9297.907610	0.084968	0.358930	3045.443115
9297.908516	0.084899	0.358930	3122.361328
9297.909415	0.085001	0.358930	3198.777344
9297.910348	0.084913	0.358930	3278.001465
9297.911283	0.084979	0.358930	3357.457031
9297.912182	0.084866	0.358930	3433.751221
9297.913096	0.084906	0.358930	3511.355225
9298.946542	1.181338	0.318297	555.228760
9298.947460	1.656738	0.318297	2076.114502
9298.948357	0.792898	0.318297	2787.343994
9298.949313	0.088469	0.318297	2871.920654
9298.950251	0.084818	0.318297	2951.479980
9298.951153	0.084844	0.318297	3028.009033
9298.952083	0.084950	0.318297	3107.012451
9298.953008	0.084932	0.318297	3185.574219
9298.953920	0.084921	0.318297	3263.021973
9298.954818	0.084902	0.318297	3339.264160
9298.955758	0.084910	0.318297	3419.079346
9298.956690	0.084891	0.318297	3498.197998
9298.957597	0.084979	0.318297	3575.274170
9299.969479	1.156216	0.358145	505.266296
9299.970374	1.653966	0.358145	1985.565918
9299.971354	0.749901	0.358145	2720.468994
9299.972269	0.088546	0.358145	2801.488770
9299.973187	0.084774	0.358145	2879.311523
9299.974088	0.084928	0.358145	2955.831543
9299.975030	0.084968	0.358145	3035.871582
9299.975932	0.084884	0.358145	3112.437012
9299.976825	0.084888	0.358145	3188.241699
9299.977753	0.084965	0.358145	3267.088867
9299.978679	0.084833	0.358145	3345.644043
9299.979577	0.084880	0.358145	3421.866699
9299.980466	0.084924	0.358145	3497.364502
9301.016013	1.160376	0.317016	507.084290
9301.016967	1.654830	0.317016	2085.792480
9301.017892	0.756035	0.317016	2785.125000
9301.018789	0.089019	0.317016	2864.974609
9301.019685	0.084807	0.317016	2940.961914
9301.020621	0.085009	0.317016	3020.530029
9301.021522	0.085031	0.317016	3097.142578
9301.022420	0.084851	0.317016	3173.338867
9301.023309	0.084954	0.317016	3248.862549
9301.024263	0.084961	0.317016	3329.915283
9301.025171	0.084946	0.317016	3407.046631
9301.026066	0.084924	0.317016	3483.053955
9301.027006	0.084924	0.317016	3562.882812
9302.036938	1.159504	0.357867	506.703430
9302.037835	1.654530	0.357867	1990.816895
9302.038790	0.797388	0.357867	2752.322021
9302.039733	0.088209	0.357867	2835.503418
9302.040650	0.084858	0.357867	2913.318604
9302.041541	0.084880	0.357867	2988.947021
9302.042493	0.084921	0.357867	3069.791504
9302.043428	0.084906	0.357867	3149.178711
9302.044322	0.084869	0.357867	3225.052002
9302.045248	0.084906	0.357867	3303.675049
9302.046176	0.084946	0.357867	3382.505127
9302.047094	0.084877	0.357867	3460.421875
9302.047991	0.084928	0.357867	3536.602295
9303.084543	1.231289	0.318123	603.331604
9303.085463	1.657192	0.318123	2127.948486
9303.086395	0.702711	0.318123	2782.875244
9303.087282	0.088253	0.318123	2861.155762
9303.088249	0.084877	0.318123	2943.231445
9303.089149	0.084917	0.318123	3019.656738
9303.090040	0.084899	0.318123	3095.301514
9303.090971	0.085038	0.318123	3174.471680
9303.091885	0.085045	0.318123	3252.202881
9303.092807	0.084932	0.318123	3330.509766
9303.093694	0.084946	0.318123	3405.857178
9303.094632	0.084939	0.318123	3485.530029
9303.095532	0.084910	0.318123	3561.948730
9304.104414	1.187249	0.356332	534.261841
9304.105318	1.655647	0.356332	2030.966797
9304.106215	0.838971	0.356332	2783.523682
9304.107168	0.089183	0.356332	2868.515381
9304.108074	0.085001	0.356332	2945.526367
9304.108962	0.084943	0.356332	3020.955322
9304.109888	0.084880	0.356332	3099.554443
9304.110792	0.085031	0.356332	3176.422119
9304.111706	0.084921	0.356332	3254.039551
9304.112606	0.084913	0.356332	3330.461670
9304.113530	0.084998	0.356332	3408.999512
9304.114430	0.084998	0.356332	3485.497314
9304.115335	0.084965	0.356332	3562.390381
9305.153992	1.155619	0.317193	505.005463
9305.154893	1.654647	0.317193	1995.842529
9305.155882	0.764436	0.317193	2751.869629
9305.156817	0.088187	0.317193	2834.324707
9305.157721	0.084910	0.317193	2911.083008
9305.158637	0.084990	0.317193	2988.934082
9305.159568	0.084873	0.317193	3067.950928
9305.160487	0.084946	0.317193	3146.016602
9305.161378	0.084943	0.317193	3221.700439
9305.162304	0.084811	0.317193	3300.235352
9305.163238	0.084899	0.317193	3379.530762
9305.164157	0.084972	0.317193	3457.619873
9305.165045	0.084990	0.317193	3533.091309
9306.171868	1.183000	0.357387	534.716187
9306.172798	1.656222	0.357387	2075.002441
9306.173696	0.797479	0.357387	2791.138916
9306.174643	0.088949	0.357387	2875.373535
9306.175551	0.084866	0.357387	2952.431641
9306.176468	0.085001	0.357387	3030.377686
9306.177362	0.084880	0.357387	3106.260742
9306.178313	0.084921	0.357387	3187.020264
9306.179236	0.084891	0.357387	3265.375000
9306.180130	0.084950	0.357387	3341.320312
9306.181054	0.084895	0.357387	3419.763184
9306.181976	0.084921	0.357387	3498.060059
9306.182897	0.084965	0.357387	3576.312500
9307.221467	1.172245	0.319102	531.026917
9307.222363	1.655189	0.319102	2014.076416
9307.223320	0.814962	0.319102	2793.995117
9307.224226	0.088872	0.319102	2874.513184
9307.225134	0.084895	0.319102	2951.597900
9307.226025	0.084965	0.319102	3027.301270
9307.226951	0.085016	0.319102	3106.025879
9307.227866	0.084979	0.319102	3183.781982
9307.228770	0.084946	0.319102	3260.573486
9307.229659	0.084946	0.319102	3336.090820
9307.230606	0.084884	0.319102	3416.476074
9307.231502	0.084760	0.319102	3492.420654
9307.232393	0.084990	0.319102	3568.146973
9308.239307	1.176288	0.356360	516.390320
9308.240282	1.657504	0.356360	2132.456299
9308.241201	0.726834	0.356360	2800.416260
9308.242097	0.088326	0.356360	2879.556641
9308.243037	0.084935	0.356360	2959.395752
9308.243936	0.084990	0.356360	3035.802002
9308.244839	0.084965	0.356360	3112.525146
9308.245726	0.085023	0.356360	3187.940674
9308.246670	0.084950	0.356360	3268.133301
9308.247575	0.084935	0.356360	3344.999756
9308.248473	0.084891	0.356360	3421.232178
9308.249394	0.085038	0.356360	3499.552002
9308.250308	0.084961	0.356360	3577.206299
9309.289942	1.176412	0.324943	525.856323
9309.290842	1.655446	0.324943	2015.757324
9309.291780	0.802929	0.324943	2768.904297
9309.292728	0.088649	0.324943	2852.943359
9309.293648	0.084906	0.324943	2931.056885
9309.294540	0.084954	0.324943	3006.835449
9309.295499	0.084939	0.324943	3088.291992
9309.296430	0.084928	0.324943	3167.359863
9309.297331	0.085038	0.324943	3243.979004
9309.298263	0.084906	0.324943	3323.111328
9309.299209	0.084939	0.324943	3403.463623
9309.300120	0.084961	0.324943	3480.863037
9309.301014	0.084825	0.324943	3556.697021
9310.307807	1.179701	0.354012	534.404480
9310.308712	1.655178	0.354012	2032.340820
9310.309614	0.842344	0.354012	2792.134766
9310.310543	0.091395	0.354012	2877.041016
9310.311476	0.084807	0.354012	2956.166016
9310.312395	0.084910	0.354012	3034.197998
9310.313294	0.084924	0.354012	3110.544922
9310.314223	0.084836	0.354012	3189.357910
9310.315134	0.084840	0.354012	3266.647217
9310.316059	0.084921	0.354012	3345.198730
9310.316948	0.084847	0.354012	3420.628174
9310.317896	0.084917	0.354012	3501.129395
9310.318817	0.084836	0.354012	3579.263672
9311.358425	1.174926	0.323743	522.841858
9311.359318	1.654537	0.323743	2000.343750
9311.360290	0.761682	0.323743	2740.698730
9311.361190	0.089125	0.323743	2820.911133
9311.362077	0.084800	0.323743	2896.128662
9311.363012	0.084972	0.323743	2975.577393
9311.363926	0.084888	0.323743	3053.164795
9311.364830	0.084895	0.323743	3129.909912
9311.365721	0.084998	0.323743	3205.642822
9311.366650	0.084983	0.323743	3284.592041
9311.367567	0.084906	0.323743	3362.450928
9311.368469	0.084829	0.323743	3438.966797
9311.369359	0.084946	0.323743	3514.569092
9312.376279	1.179313	0.352509	523.614868
9312.377198	1.655629	0.352509	2045.137573
9312.378106	0.816899	0.352509	2786.882324
9312.379040	0.090597	0.352509	2871.499756
9312.379947	0.085009	0.352509	2948.602539
9312.380852	0.084968	0.352509	3025.498779
9312.381750	0.084917	0.352509	3101.754150
9312.382689	0.084994	0.352509	3181.563477
9312.383587	0.084994	0.352509	3257.887939
9312.384483	0.084924	0.352509	3333.980225
9312.385369	0.084994	0.352509	3409.284912
9312.386294	0.085005	0.352509	3487.914551
9312.387199	0.084946	0.352509	3564.791016
9313.425880	1.183385	0.328178	536.073425
9313.426817	1.656511	0.328178	2088.224609
9313.427743	0.763821	0.328178	2795.522705
9313.428679	0.087693	0.328178	2877.603271
9313.429609	0.084917	0.328178	2956.576172
9313.430508	0.084910	0.328178	3032.909912
9313.431429	0.084968	0.328178	3111.165771
9313.432366	0.084869	0.328178	3190.688477
9313.433281	0.084895	0.328178	3268.367432
9313.434168	0.084928	0.328178	3343.698486
9313.435110	0.084913	0.328178	3423.686768
9313.436041	0.084862	0.328178	3502.693359
9313.436936	0.084957	0.328178	3578.730225
9314.443731	1.169041	0.351591	519.054016
9314.444634	1.654882	0.351591	2013.412109
9314.445536	0.863694	0.351591	2792.463867
9314.446477	0.091758	0.351591	2878.807861
9314.447391	0.084803	0.351591	2956.318115
9314.448313	0.084884	0.351591	3034.581299
9314.449204	0.084917	0.351591	3110.242432
9314.450142	0.084965	0.351591	3189.939209
9314.451050	0.084888	0.351591	3267.017334
9314.451970	0.084913	0.351591	3345.137695
9314.452863	0.084946	0.351591	3420.994629
9314.453820	0.085005	0.351591	3502.344238
9314.454725	0.084910	0.351591	3579.187500
9315.493328	1.172164	0.327848	520.440979
9315.494229	1.655193	0.327848	2011.769775
9315.495130	0.853239	0.327848	2780.537598
9315.496091	0.089253	0.327848	2866.309570
9315.496997	0.084858	0.327848	2943.191406
9315.497887	0.084983	0.327848	3018.826172
9315.498837	0.084994	0.327848	3099.570312
9315.499745	0.084976	0.327848	3176.728027
9315.500640	0.084968	0.327848	3252.774658
9315.501528	0.084932	0.327848	3328.193848
9315.502470	0.085049	0.327848	3408.309814
9315.503373	0.084928	0.327848	3484.999756
9315.504277	0.084855	0.327848	3561.708496
9316.512209	1.165246	0.353875	519.699951
9316.513104	1.654585	0.353875	2000.553589
9316.514102	0.726453	0.353875	2725.553223
9316.515024	0.087865	0.353875	2806.564697
9316.515937	0.084891	0.353875	2884.070557
9316.516837	0.084935	0.353875	2960.512451
9316.517784	0.084825	0.353875	3040.842041
9316.518714	0.084917	0.353875	3119.814941
9316.519613	0.084899	0.353875	3196.138916
9316.520526	0.084946	0.353875	3273.694824
9316.521463	0.084869	0.353875	3353.217529
9316.522378	0.084924	0.353875	3430.923340
9316.523271	0.084858	0.353875	3506.701904
9317.561812	1.166605	0.328214	517.972717
9317.562764	1.657211	0.328214	2095.637207
9317.563694	0.740940	0.328214	2784.711426
9317.564594	0.088524	0.328214	2864.383301
9317.565482	0.084950	0.328214	2939.818848
9317.566432	0.084943	0.328214	3020.514404
9317.567337	0.084866	0.328214	3097.317871
9317.568257	0.084954	0.328214	3175.475098
9317.569154	0.084961	0.328214	3251.685059
9317.570099	0.084847	0.328214	3331.865967
9317.570998	0.084844	0.328214	3408.140381
9317.571889	0.084928	0.328214	3483.811279
9317.572822	0.084924	0.328214	3563.045654
9318.580686	1.167664	0.351687	516.107300
9318.581580	1.654534	0.351687	1995.260498
9318.582553	0.767812	0.351687	2742.342041
9318.583458	0.089172	0.351687	2823.042969
9318.584355	0.084847	0.351687	2899.151123
9318.585276	0.084976	0.351687	2977.413574
9318.586175	0.085001	0.351687	3053.829590
9318.587070	0.084932	0.351687	3129.843506
9318.587957	0.084939	0.351687	3205.184326
9318.588904	0.085012	0.351687	3285.690918
9318.589793	0.085052	0.351687	3361.302490
9318.590699	0.084891	0.351687	3438.214111
9318.591600	0.084935	0.351687	3514.740723
9319.630288	1.177343	0.327550	525.094788
9319.631251	1.656702	0.327550	2120.498535
9319.632187	0.699221	0.327550	2774.969482
9319.633110	0.087349	0.327550	2855.592285
9319.634004	0.084910	0.327550	2931.501465
9319.634950	0.084877	0.327550	3011.794922
9319.635898	0.084811	0.327550	3092.195557
9319.636793	0.084917	0.327550	3168.196289
9319.637711	0.084961	0.327550	3246.190430
9319.638649	0.084946	0.327550	3325.870117
9319.639563	0.084869	0.327550	3403.440674
9319.640450	0.084917	0.327550	3478.761963
9319.641375	0.084913	0.327550	3557.306885
9320.649159	1.153184	0.353597	499.328491
9320.650099	1.654570	0.353597	2054.624512
9320.651043	0.749414	0.353597	2762.071289
9320.651963	0.088378	0.353597	2843.378662
9320.652858	0.084789	0.353597	2919.264648
9320.653809	0.084957	0.353597	3000.059082
9320.654746	0.084851	0.353597	3079.564453
9320.655636	0.084833	0.353597	3155.065674
9320.656563	0.084855	0.353597	3233.726074
9320.657500	0.084965	0.353597	3313.337891
9320.658431	0.084987	0.353597	3392.460449
9320.659327	0.084972	0.353597	3468.595215
9320.660241	0.084833	0.353597	3546.132324
9321.698757	1.155989	0.327969	501.699097
9321.699713	1.656240	0.327969	2085.064697
9321.700646	0.737552	0.327969	2773.201172
9321.701582	0.087729	0.327969	2855.315918
9321.702476	0.084884	0.327969	2931.202148
9321.703429	0.084869	0.327969	3012.082764
9321.704356	0.084921	0.327969	3090.804199
9321.705245	0.084939	0.327969	3166.314941
9321.706180	0.084873	0.327969	3245.671143
9321.707085	0.084910	0.327969	3322.514404
9321.708010	0.084965	0.327969	3401.106689
9321.708912	0.084990	0.327969	3477.767822
9321.709862	0.084913	0.327969	3558.435547
9322.715613	1.177504	0.355845	527.521606
9322.716511	1.655171	0.355845	2013.865112
9322.717420	0.848284	0.355845	2784.955078
9322.718354	0.089535	0.355845	2868.580566
9322.719268	0.084895	0.355845	2946.174561
9322.720175	0.084880	0.355845	3023.161133
9322.721065	0.084983	0.355845	3098.795898
9322.722013	0.085020	0.355845	3179.394531
9322.722916	0.084869	0.355845	3256.031494
9322.723810	0.084913	0.355845	3331.944092
9322.724750	0.084968	0.355845	3411.814209
9322.725653	0.084965	0.355845	3488.537354
9322.726547	0.084785	0.355845	3564.335205
9323.767290	1.187545	0.326470	562.896423
9323.768220	1.656720	0.326470	2103.645996
9323.769119	0.761814	0.326470	2788.516602
9323.770036	0.089242	0.326470	2870.351562
9323.770972	0.084932	0.326470	2949.847656
9323.771890	0.084910	0.326470	3027.794678
9323.772781	0.084943	0.326470	3103.478516
9323.773716	0.084998	0.326470	3182.951172
9323.774643	0.084950	0.326470	3261.699707
9323.775563	0.084855	0.326470	3339.766113
9323.776452	0.084829	0.326470	3415.179199
9323.777400	0.084818	0.326470	3495.586670
9323.778335	0.084910	0.326470	3574.977295
9324.785093	1.170579	0.356481	511.542847
9324.786094	1.657760	0.356481	2170.960449
9324.787006	0.688370	0.356481	2798.754150
9324.787901	0.087737	0.356481	2877.278564
9324.788843	0.084913	0.356481	2957.266846
9324.789758	0.084866	0.356481	3034.918945
9324.790678	0.084946	0.356481	3113.069580
9324.791570	0.085001	0.356481	3188.890625
9324.792513	0.084891	0.356481	3268.943115
9324.793410	0.084800	0.356481	3345.008545
9324.794303	0.084917	0.356481	3420.839355
9324.795209	0.085107	0.356481	3497.946777
9324.796152	0.084961	0.356481	3578.064941
9325.835721	1.157545	0.323046	508.162354
9325.836615	1.654413	0.323046	1987.207397
9325.837600	0.761312	0.323046	2737.100098
9325.838534	0.088041	0.323046	2819.330078
9325.839431	0.084807	0.323046	2895.402100
9325.840354	0.084884	0.323046	2973.750000
9325.841297	0.085001	0.323046	3053.906250
9325.842210	0.084961	0.323046	3131.475586
9325.843103	0.084862	0.323046	3207.257324
9325.844050	0.084855	0.323046	3287.614746
9325.844962	0.084895	0.323046	3365.039062
9325.845888	0.084946	0.323046	3443.699219
9325.846777	0.084928	0.323046	3519.200195
9326.852573	1.180261	0.358028	529.937317
9326.853489	1.655175	0.358028	2046.077148
9326.854397	0.817467	0.358028	2788.337158
9326.855356	0.089758	0.358028	2874.415283
9326.856251	0.084844	0.358028	2950.350342
9326.857172	0.084946	0.358028	3028.585937
9326.858067	0.084932	0.358028	3104.599854
9326.859006	0.084910	0.358028	3184.330078
9326.859914	0.084869	0.358028	3261.391602
9326.860813	0.084910	0.358028	3337.725342
9326.861728	0.084965	0.358028	3415.468018
9326.862657	0.084884	0.358028	3494.325195
9326.863552	0.084833	0.358028	3570.250488
9327.904246	1.185919	0.321125	571.613037
9327.905162	1.656888	0.321125	2089.322754
9327.906069	0.771368	0.321125	2788.953857
9327.906954	0.089634	0.321125	2868.279785
9327.907909	0.084913	0.321125	2949.372070
9327.908805	0.085001	0.321125	3025.533203
9327.909707	0.084855	0.321125	3102.072266
9327.910598	0.084913	0.321125	3177.729980
9327.911552	0.085031	0.321125	3258.849121
9327.912469	0.084873	0.321125	3336.677734
9327.913370	0.084862	0.321125	3413.138428
9327.914296	0.084910	0.321125	3491.764893
9327.915194	0.084990	0.321125	3568.086182
9328.922059	1.169183	0.357114	514.440674
9328.923004	1.655988	0.357114	2079.348877
9328.923969	0.686437	0.357114	2741.760254
9328.924887	0.087213	0.357114	2821.822021
9328.925773	0.084822	0.357114	2896.974121
9328.926722	0.084811	0.357114	2977.459473
9328.927660	0.084877	0.357114	3057.073730
9328.928557	0.084906	0.357114	3133.234375
9328.929489	0.084884	0.357114	3212.346191
9328.930430	0.084836	0.357114	3292.177246
9328.931355	0.084851	0.357114	3370.664551
9328.932243	0.084884	0.357114	3446.041504
9328.933179	0.084855	0.357114	3525.465576
9329.971719	1.215476	0.321676	604.091614
9329.972618	1.656932	0.321676	2093.673828
9329.973541	0.742123	0.321676	2778.653320
9329.974438	0.088766	0.321676	2858.276367
9329.975383	0.084946	0.321676	2938.550537
9329.976284	0.084946	0.321676	3015.087158
9329.977179	0.084968	0.321676	3091.133789
9329.978103	0.084957	0.321676	3169.634277
9329.979023	0.084858	0.321676	3247.704102
9329.979920	0.084888	0.321676	3323.848389
9329.980810	0.084932	0.321676	3399.437500
9329.981741	0.084998	0.321676	3478.570312
9329.982645	0.084921	0.321676	3555.338623
9330.989515	1.161464	0.361964	508.721069
9330.990452	1.654347	0.361964	2058.844238
9330.991392	0.754911	0.361964	2768.460449
9330.992310	0.088718	0.361964	2849.903809
9330.993202	0.084957	0.361964	2925.685791
9330.994147	0.085031	0.361964	3006.039551
9330.995052	0.084998	0.361964	3082.962402
9330.995956	0.084968	0.361964	3159.773682
9330.996851	0.084935	0.361964	3235.790771
9330.997805	0.085027	0.361964	3316.906494
9330.998712	0.084891	0.361964	3393.902832
9330.999609	0.084873	0.361964	3470.033936
9331.000533	0.085023	0.361964	3548.595459
9332.039113	1.169897	0.320420	513.584961
9332.040094	1.657101	0.320420	2139.200684
9332.041042	0.660425	0.320420	2765.283447
9332.041941	0.087345	0.320420	2843.806641
9332.042870	0.084781	0.320420	2922.568604
9332.043814	0.084910	0.320420	3002.723389
9332.044733	0.084895	0.320420	3080.741943
9332.045620	0.084924	0.320420	3156.069824
9332.046561	0.084913	0.320420	3235.973389
9332.047502	0.084877	0.320420	3315.842285
9332.048401	0.084965	0.320420	3392.225342
9332.049315	0.084906	0.320420	3469.829346
9332.050247	0.084895	0.320420	3548.951416
9333.059032	1.165448	0.361496	516.293457
9333.059937	1.654728	0.361496	2013.822144
9333.060829	0.862247	0.361496	2782.946777
9333.061778	0.089696	0.361496	2868.068359
9333.062681	0.084943	0.361496	2944.771484
9333.063573	0.084939	0.361496	3020.537109
9333.064501	0.084983	0.361496	3099.401367
9333.065429	0.084994	0.361496	3178.275635
9333.066337	0.084921	0.361496	3255.383545
9333.067228	0.084884	0.361496	3331.015137
9333.068171	0.084998	0.361496	3411.167725
9333.069081	0.084895	0.361496	3488.422119
9333.070001	0.084913	0.361496	3566.542480
9334.105555	1.164218	0.321765	516.912598
9334.106453	1.654314	0.321765	2002.486450
9334.107428	0.761488	0.321765	2744.937256
9334.108327	0.088989	0.321765	2824.938477
9334.109224	0.084869	0.321765	2901.066406
9334.110155	0.084913	0.321765	2980.120605
9334.111070	0.084935	0.321765	3057.836426
9334.111979	0.084814	0.321765	3134.932861
9334.112875	0.084935	0.321765	3211.034912
9334.113812	0.084928	0.321765	3290.612305
9334.114718	0.084932	0.321765	3367.560303
9334.115617	0.084818	0.321765	3443.811768
9334.116505	0.084866	0.321765	3519.172607
9335.128522	1.164093	0.360594	508.708649
9335.129500	1.656866	0.360594	2129.124023
9335.130434	0.696475	0.360594	2779.631348
9335.131328	0.087854	0.360594	2858.172852
9335.132253	0.084965	0.360594	2936.765137
9335.133198	0.084899	0.360594	3016.994385
9335.134116	0.084888	0.360594	3094.921387
9335.135007	0.084924	0.360594	3170.588867
9335.135951	0.084950	0.360594	3250.781738
9335.136884	0.084880	0.360594	3329.975098
9335.137776	0.084928	0.360594	3405.730957
9335.138693	0.084895	0.360594	3483.579590
9335.139619	0.084869	0.360594	3562.168701
9336.174027	1.179349	0.318659	518.913696
9336.175013	1.657830	0.318659	2153.533691
9336.175938	0.685953	0.318659	2788.040527
9336.176828	0.087931	0.318659	2866.299072
9336.177763	0.084932	0.318659	2945.710205
9336.178679	0.084957	0.318659	3023.531006
9336.179602	0.085045	0.318659	3102.027588
9336.180491	0.084957	0.318659	3177.554687
9336.181447	0.085009	0.318659	3258.822754
9336.182347	0.084935	0.318659	3335.264648
9336.183269	0.084877	0.318659	3413.520996
9336.184159	0.084972	0.318659	3489.145996
9336.185105	0.084833	0.318659	3569.397705
9337.197035	1.197026	0.359881	554.223206
9337.197965	1.656365	0.359881	2094.642578
9337.198887	0.750963	0.359881	2787.030518
9337.199802	0.089088	0.359881	2868.546143
9337.200728	0.084939	0.359881	2947.199707
9337.201640	0.084965	0.359881	3024.687500
9337.202532	0.084833	0.359881	3100.358398
9337.203451	0.084976	0.359881	3178.450928
9337.204362	0.084917	0.359881	3255.810303
9337.205263	0.084910	0.359881	3332.313965
9337.206152	0.084987	0.359881	3407.866943
9337.207108	0.084917	0.359881	3489.047607
9337.208010	0.084888	0.359881	3565.616211
9338.240461	1.163295	0.323284	513.012939
9338.241355	1.654281	0.323284	1991.940186
9338.242341	0.768076	0.323284	2749.263184
9338.243279	0.088121	0.323284	2831.920898
9338.244178	0.084899	0.323284	2908.244873
9338.245096	0.084858	0.323284	2986.144775
9338.246029	0.084968	0.323284	3065.420166
9338.246951	0.084924	0.323284	3143.720459
9338.247849	0.084913	0.323284	3219.972656
9338.248772	0.084950	0.323284	3298.381348
9338.249716	0.084946	0.323284	3378.570557
9338.250633	0.084906	0.323284	3456.429443
9338.251525	0.084829	0.323284	3532.096924
9339.265492	1.162603	0.357404	517.358154
9339.266388	1.654797	0.357404	2000.056519
9339.267345	0.807693	0.357404	2773.018555
9339.268234	0.089777	0.357404	2852.830078
9339.269154	0.084895	0.357404	2930.933594
9339.270044	0.084921	0.357404	3006.512939
9339.270974	0.085012	0.357404	3085.574219
9339.271881	0.084833	0.357404	3162.517578
9339.272807	0.084932	0.357404	3241.164307
9339.273693	0.084928	0.357404	3316.410400
9339.274653	0.084869	0.357404	3397.885010
9339.275549	0.084899	0.357404	3473.954102
9339.276440	0.084906	0.357404	3549.605469
9340.308941	1.159453	0.323175	505.521515
9340.309887	1.655973	0.323175	2072.071777
9340.310807	0.780146	0.323175	2789.806641
9340.311701	0.089410	0.323175	2869.739502
9340.312589	0.084924	0.323175	2945.152344
9340.313518	0.084972	0.323175	3024.091309
9340.314429	0.084910	0.323175	3101.444092
9340.315326	0.084880	0.323175	3177.581787
9340.316248	0.084972	0.323175	3255.925781
9340.317158	0.084965	0.323175	3333.243652
9340.318061	0.084906	0.323175	3409.913818
9340.318952	0.084902	0.323175	3485.561768
9340.319889	0.085049	0.323175	3565.252441
9341.335008	1.171728	0.354145	536.651672
9341.335965	1.657295	0.354145	2122.682861
9341.336899	0.691849	0.354145	2768.870117
9341.337791	0.087920	0.354145	2847.294678
9341.338722	0.084877	0.354145	2926.314941
9341.339668	0.084935	0.354145	3006.663818
9341.340589	0.084869	0.354145	3084.828613
9341.341480	0.084972	0.354145	3160.538574
9341.342429	0.084976	0.354145	3241.180420
9341.343368	0.084961	0.354145	3320.958740
9341.344260	0.084833	0.354145	3396.629639
9341.345188	0.084899	0.354145	3475.415527
9341.346120	0.084840	0.354145	3554.486572
9342.375381	1.173344	0.328295	522.137878
9342.376280	1.655299	0.328295	2010.251709
9342.377201	0.840253	0.328295	2784.124512
9342.378155	0.088766	0.328295	2868.807129
9342.379084	0.084862	0.328295	2947.644043
9342.379976	0.084921	0.328295	3023.393311
9342.380930	0.084858	0.328295	3104.348145
9342.381836	0.084913	0.328295	3181.279541
9342.382752	0.084807	0.328295	3258.962891
9342.383638	0.084935	0.328295	3334.215576
9342.384579	0.084932	0.328295	3414.136230
9342.385503	0.084814	0.328295	3492.504883
9342.386403	0.084877	0.328295	3568.894043
9343.403476	1.172472	0.352570	519.405029
9343.404400	1.655610	0.352570	2049.188965
9343.405305	0.818807	0.352570	2790.209717
9343.406254	0.089414	0.352570	2875.063721
9343.407152	0.084880	0.352570	2951.286377
9343.408055	0.084987	0.352570	3028.029297
9343.408939	0.084803	0.352570	3102.995605
9343.409876	0.084979	0.352570	3182.621094
9343.410790	0.084858	0.352570	3260.181641
9343.411689	0.084836	0.352570	3336.449707
9343.412620	0.084961	0.352570	3415.548340
9343.413530	0.084924	0.352570	3492.829590
9343.414435	0.084895	0.352570	3569.659668
9344.443864	1.170418	0.328351	514.983704
9344.444801	1.654761	0.328351	2065.494385
9344.445740	0.752889	0.328351	2772.457520
9344.446673	0.088085	0.328351	2854.640625
9344.447566	0.084913	0.328351	2930.468262
9344.448503	0.084858	0.328351	3009.980469
9344.449425	0.084858	0.328351	3088.219971
9344.450326	0.084884	0.328351	3164.700439
9344.451251	0.084873	0.328351	3243.208008
9344.452177	0.084891	0.328351	3321.817383
9344.453103	0.084932	0.328351	3400.464111
9344.453996	0.084946	0.328351	3476.321045
9344.454947	0.084829	0.328351	3556.993408
9345.470949	1.186208	0.351341	538.538635
9345.471857	1.655669	0.351341	2041.885986
9345.472752	0.843926	0.351341	2797.199463
9345.473698	0.089213	0.351341	2881.594727
9345.474611	0.084851	0.351341	2959.063721
9345.475537	0.084899	0.351341	3037.679932
9345.476430	0.084880	0.351341	3113.478027
9345.477386	0.084910	0.351341	3194.651611
9345.478291	0.084807	0.351341	3271.402100
9345.479184	0.084895	0.351341	3347.213379
9345.480136	0.084957	0.351341	3428.092773
9345.481050	0.084983	0.351341	3505.767090
9345.481964	0.084928	0.351341	3583.391357
9346.513364	1.171381	0.329548	516.578857
9346.514268	1.654937	0.329548	2012.641479
9346.515177	0.850342	0.329548	2785.602051
9346.516120	0.089312	0.329548	2869.822754
9346.517024	0.084906	0.329548	2946.577881
9346.517930	0.084873	0.329548	3023.472900
9346.518841	0.084990	0.329548	3100.898926
9346.519771	0.084976	0.329548	3179.926270
9346.520686	0.084833	0.329548	3257.548340
9346.521577	0.084928	0.329548	3333.219238
9346.522516	0.085049	0.329548	3413.080078
9346.523411	0.084928	0.329548	3489.090576
9346.524312	0.084939	0.329548	3565.620605
9347.538411	1.182777	0.349943	557.088074
9347.539315	1.656519	0.349943	2054.580811
9347.540278	0.757581	0.349943	2784.130859
9347.541185	0.087825	0.349943	2863.787842
9347.542110	0.084943	0.349943	2942.359863
9347.542995	0.085016	0.349943	3017.598877
9347.543947	0.084972	0.349943	3098.492187
9347.544845	0.084902	0.349943	3174.734375
9347.545757	0.084950	0.349943	3252.208740
9347.546653	0.084961	0.349943	3328.333740
9347.547594	0.084921	0.349943	3408.244141
9347.548508	0.084891	0.349943	3485.834961
9347.549416	0.084913	0.349943	3562.936279
9348.580811	1.159376	0.331223	507.806793
9348.581706	1.654332	0.331223	1988.434204
9348.582667	0.789540	0.331223	2747.181885
9348.583581	0.089528	0.331223	2829.010010
9348.584474	0.084913	0.331223	2904.837646
9348.585364	0.084924	0.331223	2980.420410
9348.586307	0.085009	0.331223	3060.583496
9348.587206	0.084866	0.331223	3136.877686
9348.588108	0.084895	0.331223	3213.452881
9348.589002	0.084902	0.331223	3289.355469
9348.589943	0.084976	0.331223	3369.317383
9348.590847	0.084877	0.331223	3446.045898
9348.591733	0.084943	0.331223	3521.305176
9349.606854	1.153283	0.349935	499.371338
9349.607787	1.654171	0.349935	2042.713135
9349.608737	0.780992	0.349935	2784.656006
9349.609662	0.088381	0.349935	2866.408691
9349.610550	0.084884	0.349935	2941.785645
9349.611470	0.084891	0.349935	3019.885742
9349.612413	0.084851	0.349935	3099.900391
9349.613326	0.084928	0.349935	3177.439697
9349.614220	0.084979	0.349935	3253.411133
9349.615168	0.084840	0.349935	3333.839600
9349.616111	0.084800	0.349935	3413.805908
9349.617006	0.084884	0.349935	3489.777100
9349.617925	0.084789	0.349935	3567.697998
9350.650356	1.215447	0.330200	573.690857
9350.651268	1.656548	0.330200	2084.462646
9350.652211	0.723684	0.330200	2766.896729
9350.653119	0.088510	0.330200	2847.263428
9350.654064	0.084888	0.330200	2927.482422
9350.654977	0.084917	0.330200	3005.011719
9350.655865	0.084917	0.330200	3080.417969
9350.656796	0.084888	0.330200	3159.448486
9350.657713	0.084855	0.330200	3237.260254
9350.658633	0.084880	0.330200	3315.350098
9350.659524	0.084917	0.330200	3391.011230
9350.660481	0.084880	0.330200	3472.241699
9350.661404	0.084862	0.330200	3550.569336
9351.674320	1.165356	0.351345	513.922180
9351.675287	1.654951	0.351345	2114.260010
9351.676202	0.734220	0.351345	2786.071289
9351.677100	0.088612	0.351345	2865.645020
9351.677991	0.084774	0.351345	2941.178711
9351.678921	0.084983	0.351345	3020.212891
9351.679829	0.084946	0.351345	3097.344238
9351.680733	0.084935	0.351345	3174.125732
9351.681622	0.084954	0.351345	3249.649414
9351.682565	0.085005	0.351345	3329.809082
9351.683479	0.084899	0.351345	3407.406494
9351.684373	0.084910	0.351345	3483.315674
9351.685296	0.084935	0.351345	3561.710937
9352.717821	1.207321	0.332859	580.721191
9352.718727	1.656735	0.332859	2081.722656
9352.719656	0.745316	0.332859	2774.121338
9352.720554	0.088770	0.332859	2853.836426
9352.721508	0.084906	0.332859	2934.836670
9352.722443	0.084862	0.332859	3014.182617
9352.723346	0.084910	0.332859	3090.855957
9352.724271	0.084877	0.332859	3169.366943
9352.725205	0.084844	0.332859	3248.611084
9352.726125	0.084877	0.332859	3326.697754
9352.727012	0.084913	0.332859	3402.015869
9352.727956	0.084935	0.332859	3482.194824
9352.728894	0.084950	0.332859	3561.877930
9353.742848	1.189307	0.349778	587.517456
9353.743770	1.657086	0.349778	2115.350830
9353.744708	0.684133	0.349778	2757.067871
9353.745597	0.087854	0.349778	2835.170166
9353.746537	0.084825	0.349778	2914.906006
9353.747453	0.084877	0.349778	2992.653076
9353.748367	0.084921	0.349778	3070.270508
9353.749255	0.084895	0.349778	3145.657227
9353.750222	0.084884	0.349778	3227.739990
9353.751144	0.084869	0.349778	3305.989502
9353.752032	0.084935	0.349778	3381.412109
9353.752957	0.084935	0.349778	3459.977295
9353.753874	0.084774	0.349778	3537.715088
9354.786256	1.171315	0.331723	520.063721
9354.787159	1.655306	0.331723	2014.805298
9354.788109	0.818650	0.331723	2792.522705
9354.789033	0.088660	0.331723	2874.444336
9354.789942	0.084833	0.331723	2951.557373
9354.790835	0.084965	0.331723	3027.430664
9354.791777	0.085001	0.331723	3107.501709
9354.792677	0.084924	0.331723	3183.933594
9354.793579	0.084994	0.331723	3260.598145
9354.794465	0.084957	0.331723	3335.870361
9354.795393	0.084983	0.331723	3414.734619
9354.796301	0.084895	0.331723	3491.819336
9354.797203	0.084961	0.331723	3568.454102
9355.811304	1.182480	0.350753	538.028625
9355.812244	1.656412	0.350753	2095.056152
9355.813147	0.774331	0.350753	2794.277100
9355.814072	0.089484	0.350753	2877.049561
9355.815015	0.084917	0.350753	2957.126221
9355.815941	0.084818	0.350753	3035.667725
9355.816828	0.084866	0.350753	3110.943604
9355.817772	0.084844	0.350753	3191.036133
9355.818714	0.084825	0.350753	3270.941650
9355.819619	0.084847	0.350753	3347.728516
9355.820545	0.084836	0.350753	3426.287109
9355.821481	0.084866	0.350753	3505.721436
9355.822410	0.084877	0.350753	3584.571777
9356.853732	1.183114	0.331425	535.950684
9356.854632	1.655665	0.331425	2026.049438
9356.855531	0.841450	0.331425	2782.513184
9356.856490	0.089216	0.331425	2868.071533
9356.857417	0.084840	0.331425	2946.718262
9356.858302	0.084895	0.331425	3021.850342
9356.859220	0.084906	0.331425	3099.793945
9356.860146	0.084866	0.331425	3178.379639
9356.861075	0.084968	0.331425	3257.315186
9356.861966	0.084888	0.331425	3332.950195
9356.862901	0.084844	0.331425	3412.279053
9356.863821	0.085034	0.331425	3490.510498
9356.864741	0.084895	0.331425	3568.614014
9357.879774	1.169502	0.350555	529.784424
9357.880670	1.655193	0.350555	2012.837158
9357.881618	0.810095	0.350555	2780.807373
9357.882530	0.088927	0.350555	2861.908691
9357.883436	0.084877	0.350555	2938.806885
9357.884322	0.084935	0.350555	3014.059570
9357.885260	0.085031	0.350555	3093.818115
9357.886164	0.084906	0.350555	3170.573242
9357.887060	0.084932	0.350555	3246.671875
9357.887947	0.084976	0.350555	3322.045166
9357.888884	0.084917	0.350555	3401.612305
9357.889781	0.084858	0.350555	3477.730225
9357.890668	0.084913	0.350555	3553.048340
9358.922209	1.186538	0.332787	542.247925
9358.923105	1.655665	0.332787	2025.723999
9358.924051	0.773855	0.332787	2757.790771
9358.924994	0.088147	0.332787	2840.913330
9358.925904	0.084840	0.332787	2918.117920
9358.926795	0.084932	0.332787	2993.791992
9358.927747	0.084884	0.332787	3074.601562
9358.928681	0.084855	0.332787	3153.855957
9358.929577	0.084913	0.332787	3229.938232
9358.930507	0.084855	0.332787	3308.853027
9358.931444	0.084961	0.332787	3388.461426
9358.932364	0.084928	0.332787	3466.595215
9358.933252	0.084778	0.332787	3541.877930
9359.947233	1.186077	0.352340	537.292725
9359.948141	1.655929	0.352340	2040.876221
9359.949069	0.815182	0.352340	2797.364990
9359.950008	0.088301	0.352340	2880.279297
9359.950944	0.084888	0.352340	2959.734131
9359.951842	0.084935	0.352340	3036.006104
9359.952770	0.084957	0.352340	3114.846436
9359.953706	0.084924	0.352340	3194.335693
9359.954629	0.084899	0.352340	3272.697266
9359.955517	0.084924	0.352340	3348.110107
9359.956449	0.084902	0.352340	3427.239014
9359.957389	0.084917	0.352340	3507.061035
9359.958290	0.084943	0.352340	3583.594238
9360.989652	1.168788	0.331723	522.448181
9360.990556	1.655109	0.331723	2018.666260
9360.991519	0.769962	0.331723	2760.139893
9360.992428	0.088806	0.331723	2840.864746
9360.993328	0.084862	0.331723	2917.240723
9360.994219	0.084899	0.331723	2992.885498
9360.995163	0.084946	0.331723	3073.074707
9360.996061	0.084910	0.331723	3149.323486
9360.996947	0.084895	0.331723	3224.540527
9360.997850	0.084917	0.331723	3301.220459
9360.998782	0.084902	0.331723	3380.349365
9360.999693	0.084913	0.331723	3457.705322
9361.000582	0.084902	0.331723	3533.183594
9362.016722	1.172384	0.350543	517.021362
9362.017699	1.657310	0.350543	2136.212891
9362.018621	0.714547	0.350543	2795.025391
9362.019515	0.088239	0.350543	2873.910645
9362.020401	0.084811	0.350543	2949.052979
9362.021337	0.085060	0.350543	3028.668945
9362.022250	0.084972	0.350543	3106.248291
9362.023147	0.084913	0.350543	3182.415527
9362.024075	0.084910	0.350543	3261.211670
9362.024982	0.084917	0.350543	3338.231445
9362.025892	0.084877	0.350543	3415.469238
9362.026786	0.084833	0.350543	3491.309814
9362.027722	0.084998	0.350543	3570.867432
9363.058135	1.170930	0.331300	516.380249
9363.059088	1.655284	0.331300	2093.866211
9363.060018	0.732019	0.331300	2774.644043
9363.060939	0.087887	0.331300	2855.587891
9363.061826	0.084836	0.331300	2930.837891
9363.062767	0.084987	0.331300	3010.810303
9363.063712	0.084972	0.331300	3091.108887
9363.064609	0.084990	0.331300	3167.345215
9363.065533	0.084888	0.331300	3245.781494
9363.066468	0.084946	0.331300	3325.206299
9363.067378	0.085001	0.331300	3402.557373
9363.068268	0.084840	0.331300	3478.064941
9363.069209	0.084858	0.331300	3557.916748
9364.085217	1.202611	0.352566	555.606323
9364.086129	1.656182	0.352566	2066.043945
9364.087026	0.819620	0.352566	2801.243408
9364.087967	0.089381	0.352566	2885.351074
9364.088892	0.084906	0.352566	2963.889160
9364.089797	0.084943	0.352566	3040.762207
9364.090686	0.084895	0.352566	3116.233887
9364.091636	0.084972	0.352566	3196.957275
9364.092538	0.084924	0.352566	3273.559082
9364.093430	0.084847	0.352566	3349.242920
9364.094375	0.084866	0.352566	3429.440918
9364.095266	0.084932	0.352566	3505.114990
9364.096172	0.084880	0.352566	3582.016602
9365.125588	1.169945	0.329262	518.285706
9365.126485	1.654490	0.329262	2002.362793
9365.127470	0.730803	0.329262	2722.204102
9365.128397	0.087678	0.329262	2803.481934
9365.129289	0.084851	0.329262	2879.169189
9365.130209	0.084884	0.329262	2957.262451
9365.131152	0.084767	0.329262	3037.197510
9365.132073	0.084913	0.329262	3115.402588
9365.132960	0.084888	0.329262	3190.697998
9365.133905	0.084950	0.329262	3270.975586
9365.134829	0.084847	0.329262	3349.374512
9365.135729	0.084943	0.329262	3425.822754
9365.136653	0.084939	0.329262	3504.306396
9366.152692	1.181854	0.356537	560.198914
9366.153634	1.657104	0.356537	2121.191406
9366.154540	0.735454	0.356537	2787.512695
9366.155457	0.088590	0.356537	2868.749756
9366.156397	0.084866	0.356537	2948.523437
9366.157310	0.084946	0.356537	3026.079346
9366.158198	0.084935	0.356537	3101.501953
9366.159133	0.084939	0.356537	3180.919922
9366.160071	0.084877	0.356537	3260.534180
9366.160968	0.084928	0.356537	3336.714600
9366.161883	0.084877	0.356537	3414.376709
9366.162812	0.084796	0.356537	3493.152344
9366.163751	0.084763	0.356537	3572.744873
9367.194113	1.197173	0.328653	589.009033
9367.195035	1.657313	0.328653	2117.051758
9367.195938	0.748473	0.328653	2792.922852
9367.196827	0.089019	0.328653	2872.060303
9367.197773	0.085034	0.328653	2952.502686
9367.198674	0.084932	0.328653	3029.026123
9367.199575	0.084869	0.328653	3105.493408
9367.200469	0.084961	0.328653	3181.448486
9367.201422	0.084877	0.328653	3262.335937
9367.202329	0.084902	0.328653	3339.342285
9367.203222	0.084913	0.328653	3415.169922
9367.204147	0.084987	0.328653	3493.782471
9367.205053	0.084818	0.328653	3570.627686
9368.221156	1.181059	0.356413	537.382080
9368.222046	1.655281	0.356413	2010.582031
9368.222983	0.790690	0.356413	2751.458252
9368.223939	0.088334	0.356413	2835.905273
9368.224847	0.084873	0.356413	2912.969971
9368.225741	0.084833	0.356413	2988.810547
9368.226691	0.084825	0.356413	3069.394775
9368.227627	0.084844	0.356413	3148.808594
9368.228522	0.084818	0.356413	3224.720703
9368.229444	0.084825	0.356413	3302.929687
9368.230381	0.084814	0.356413	3382.400879
9368.231301	0.084888	0.356413	3460.497559
9368.232188	0.084888	0.356413	3535.792969
9369.262592	1.220717	0.328803	587.164673
9369.263496	1.656823	0.328803	2084.932129
9369.264393	0.798732	0.328803	2801.394531
9369.265313	0.089183	0.328803	2883.443115
9369.266256	0.084792	0.328803	2963.402344
9369.267172	0.084873	0.328803	3041.145996
9369.268062	0.084840	0.328803	3116.653564
9369.269017	0.084778	0.328803	3197.616455
9369.269955	0.084818	0.328803	3277.175781
9369.270854	0.084917	0.328803	3353.516113
9369.271776	0.084862	0.328803	3431.759033
9369.272713	0.084913	0.328803	3511.322754
9369.273634	0.084972	0.328803	3589.581787
9370.289613	1.161932	0.360139	508.926361
9370.290557	1.654966	0.360139	2071.214111
9370.291491	0.755658	0.360139	2776.998535
9370.292388	0.088912	0.360139	2856.752930
9370.293275	0.084869	0.360139	2932.031982
9370.294222	0.085009	0.360139	3012.535156
9370.295121	0.084825	0.360139	3088.793213
9370.296013	0.084906	0.360139	3164.529297
9370.296919	0.084943	0.360139	3241.487305
9370.297835	0.084880	0.360139	3319.237793
9370.298738	0.084910	0.360139	3395.911133
9370.299627	0.084921	0.360139	3471.405518
9370.300555	0.084943	0.360139	3550.232178
9371.331028	1.160142	0.325366	506.981873
9371.331933	1.654453	0.325366	2004.261963
9371.332895	0.784622	0.325366	2759.067871
9371.333829	0.088129	0.325366	2841.380127
9371.334733	0.084946	0.325366	2918.171631
9371.335650	0.084935	0.325366	2996.057373
9371.336589	0.084899	0.325366	3075.777344
9371.337508	0.084921	0.325366	3153.819336
9371.338398	0.084891	0.325366	3229.372559
9371.339328	0.084811	0.325366	3308.246582
9371.340252	0.084822	0.325366	3386.621826
9371.341170	0.084902	0.325366	3464.562256
9371.342063	0.084968	0.325366	3540.438965
9372.356055	1.167828	0.362209	518.515808
9372.356952	1.654611	0.362209	2002.701660
9372.357925	0.762290	0.362209	2744.409912
9372.358828	0.088876	0.362209	2824.664795
9372.359756	0.084987	0.362209	2903.532227
9372.360642	0.084858	0.362209	2978.716797
9372.361579	0.084884	0.362209	3058.253174
9372.362500	0.084866	0.362209	3136.414551
9372.363395	0.084928	0.362209	3212.425049
9372.364322	0.084902	0.362209	3291.129639
9372.365247	0.085016	0.362209	3369.769287
9372.366177	0.084990	0.362209	3448.810303
9372.367067	0.084957	0.362209	3524.422363
9373.401562	1.157765	0.320287	510.574280
9373.402462	1.654911	0.320287	1999.994141
9373.403413	0.831855	0.320287	2791.088623
9373.404313	0.089938	0.320287	2872.032715
9373.405216	0.084858	0.320287	2948.659912
9373.406099	0.084950	0.320287	3023.670654
9373.407031	0.084987	0.320287	3102.878174
9373.407943	0.084928	0.320287	3180.332520
9373.408843	0.084954	0.320287	3256.790771
9373.409732	0.084935	0.320287	3332.298340
9373.410681	0.085045	0.320287	3413.006104
9373.411589	0.084968	0.320287	3490.157227
9373.412483	0.084910	0.320287	3566.066406
9374.424527	1.167488	0.359792	516.029602
9374.425489	1.656075	0.359792	2109.174072
9374.426451	0.673103	0.359792	2756.699219
9374.427370	0.086975	0.359792	2836.629395
9374.428263	0.084818	0.359792	2912.372070
9374.429221	0.084924	0.359792	2993.729492
9374.430163	0.084895	0.359792	3073.700684
9374.431063	0.084917	0.359792	3150.125977
9374.431987	0.084906	0.359792	3228.579102
9374.432926	0.084902	0.359792	3308.302490
9374.433846	0.084858	0.359792	3386.372314
9374.434733	0.084833	0.359792	3461.618896
9374.435683	0.084800	0.359792	3542.178711
9375.470027	1.170355	0.320101	517.296997
9375.471001	1.656819	0.320101	2131.038574
9375.471908	0.735359	0.320101	2798.009033
9375.472797	0.088634	0.320101	2876.804687
9375.473736	0.084899	0.320101	2956.524658
9375.474650	0.084939	0.320101	3034.158936
9375.475568	0.084913	0.320101	3112.109375
9375.476470	0.084877	0.320101	3188.668213
9375.477423	0.084979	0.320101	3269.653320
9375.478325	0.084858	0.320101	3346.195557
9375.479247	0.084818	0.320101	3424.397949
9375.480148	0.084928	0.320101	3500.917969
9375.481096	0.084906	0.320101	3581.408936
9376.490963	1.170535	0.363994	522.058411
9376.491864	1.655468	0.363994	2013.634521
9376.492818	0.792718	0.363994	2769.887939
9376.493717	0.089604	0.363994	2850.442383
9376.494617	0.084884	0.363994	2926.837891
9376.495508	0.084950	0.363994	3002.528320
9376.496460	0.085049	0.363994	3083.494873
9376.497354	0.085012	0.363994	3159.495850
9376.498254	0.084935	0.363994	3235.937744
9376.499163	0.084921	0.363994	3313.130615
9376.500101	0.084990	0.363994	3392.851562
9376.501009	0.084954	0.363994	3469.989502
9376.501913	0.084869	0.363994	3546.711426
9377.538539	1.176603	0.321777	541.237244
9377.539451	1.656434	0.321777	2051.905273
9377.540351	0.816299	0.321777	2786.574219
9377.541268	0.090385	0.321777	2869.456787
9377.542212	0.084899	0.321777	2949.601074
9377.543126	0.084932	0.321777	3027.228516
9377.544018	0.084968	0.321777	3103.020264
9377.544964	0.084888	0.321777	3183.323975
9377.545887	0.084924	0.321777	3261.709229
9377.546800	0.084899	0.321777	3339.221680
9377.547699	0.084954	0.321777	3415.594971
9377.548648	0.084924	0.321777	3496.188232
9377.549590	0.084910	0.321777	3576.173096
9378.558416	1.170754	0.361420	520.985718
9378.559310	1.654047	0.361420	1999.703369
9378.560281	0.767124	0.361420	2744.580811
9378.561178	0.089154	0.361420	2824.552002
9378.562065	0.084880	0.361420	2899.840820
9378.563002	0.084968	0.361420	2979.456055
9378.563919	0.084891	0.361420	3057.301514
9378.564828	0.084888	0.361420	3134.464355
9378.565718	0.084983	0.361420	3210.099121
9378.566667	0.085082	0.361420	3290.841797
9378.567572	0.084906	0.361420	3367.681641
9378.568472	0.084939	0.361420	3444.126709
9378.569362	0.084917	0.361420	3519.702881
9379.608016	1.162592	0.321302	508.052521
9379.608957	1.654684	0.321302	2065.110107
9379.609891	0.763762	0.321302	2778.464111
9379.610798	0.089048	0.321302	2859.230469
9379.611689	0.084880	0.321302	2934.858887
9379.612629	0.084965	0.321302	3014.725586
9379.613529	0.084946	0.321302	3091.177246
9379.614428	0.084899	0.321302	3167.501221
9379.615323	0.084932	0.321302	3243.515137
9379.616281	0.084994	0.321302	3324.939209
9379.617187	0.084884	0.321302	3401.844238
9379.618087	0.084935	0.321302	3478.286133
9379.619018	0.084957	0.321302	3557.381348
9380.625879	1.166059	0.359804	520.062561
9380.626774	1.654534	0.359804	2000.870361
9380.627736	0.766604	0.359804	2738.343506
9380.628661	0.088264	0.359804	2819.987793
9380.629560	0.084877	0.359804	2896.291992
9380.630500	0.084961	0.359804	2976.155273
9380.631438	0.084932	0.359804	3055.821045
9380.632360	0.084924	0.359804	3134.121338
9380.633250	0.084895	0.359804	3209.677979
9380.634207	0.084869	0.359804	3290.897949
9380.635121	0.084895	0.359804	3368.491943
9380.636014	0.084880	0.359804	3444.290039
9380.636940	0.084910	0.359804	3522.916504
9381.675464	1.156102	0.324190	504.060608
9381.676412	1.656357	0.324190	2074.287354
9381.677326	0.785585	0.324190	2792.311768
9381.678213	0.089612	0.324190	2871.797363
9381.679133	0.084950	0.324190	2949.951416
9381.680058	0.085089	0.324190	3028.658936
9381.680962	0.084932	0.324190	3105.437256
9381.681850	0.084917	0.324190	3180.843506
9381.682796	0.085020	0.324190	3261.271973
9381.683695	0.084998	0.324190	3337.684814
9381.684589	0.084866	0.324190	3413.554687
9381.685479	0.084961	0.324190	3489.169922
9381.686416	0.084968	0.324190	3568.785156
9382.694345	1.156699	0.359289	502.007446
9382.695274	1.653933	0.359289	2038.511230
9382.696202	0.791528	0.359289	2773.049561
9382.697115	0.089432	0.359289	2854.701416
9382.698004	0.084869	0.359289	2930.150391
9382.698943	0.084972	0.359289	3009.938965
9382.699848	0.084917	0.359289	3086.788818
9382.700745	0.084877	0.359289	3162.923340
9382.701637	0.084979	0.359289	3238.724854
9382.702560	0.084990	0.359289	3317.170898
9382.703468	0.084913	0.359289	3394.272217
9382.704366	0.084917	0.359289	3470.527588
9382.705281	0.084957	0.359289	3548.263428
9383.744996	1.179954	0.325024	542.778625
9383.745907	1.656013	0.325024	2051.406494
9383.746806	0.813867	0.325024	2783.072998
9383.747770	0.088491	0.325024	2868.378418
9383.748714	0.084877	0.325024	2948.501953
9383.749611	0.084954	0.325024	3024.705322
9383.750540	0.084921	0.325024	3103.596680
9383.751480	0.085023	0.325024	3183.518555
9383.752398	0.084968	0.325024	3261.519531
9383.753285	0.084998	0.325024	3336.912354
9383.754218	0.084935	0.325024	3416.156982
9383.755151	0.084844	0.325024	3495.316162
9383.756047	0.084906	0.325024	3571.391846
9384.762858	1.191145	0.359099	547.926697
9384.763766	1.655665	0.359099	2051.270752
9384.764671	0.817474	0.359099	2791.084961
9384.765611	0.090179	0.359099	2875.853516
9384.766526	0.085009	0.359099	2953.636230
9384.767434	0.084950	0.359099	3030.770752
9384.768327	0.084979	0.359099	3106.657227
9384.769268	0.084928	0.359099	3186.574463
9384.770184	0.084976	0.359099	3264.412109
9384.771080	0.084921	0.359099	3340.500977
9384.771969	0.084979	0.359099	3416.047607
9384.772905	0.084961	0.359099	3495.571045
9384.773806	0.084954	0.359099	3572.114258
9385.812450	1.184967	0.326140	534.420166
9385.813375	1.655676	0.326140	2065.920654
9385.814276	0.807623	0.326140	2793.589355
9385.815221	0.090070	0.326140	2878.705078
9385.816123	0.084998	0.326140	2955.372803
9385.817018	0.084998	0.326140	3031.445557
9385.817911	0.084990	0.326140	3107.341797
9385.818856	0.085020	0.326140	3187.685303
9385.819754	0.084990	0.326140	3264.006592
9385.820654	0.084968	0.326140	3340.478027
9385.821555	0.084990	0.326140	3417.054199
9385.822479	0.084976	0.326140	3495.571533
9385.823390	0.085045	0.326140	3573.047607
9386.830320	1.219230	0.357915	581.572571
9386.831259	1.657134	0.357915	2137.621094
9386.832188	0.697416	0.357915	2785.520264
9386.833078	0.088129	0.357915	2863.954834
9386.834034	0.084906	0.357915	2945.125000
9386.834969	0.084987	0.357915	3024.587402
9386.835868	0.084943	0.357915	3100.950928
9386.836800	0.084873	0.357915	3180.052490
9386.837742	0.084976	0.357915	3260.099609
9386.838660	0.084891	0.357915	3338.029785
9386.839550	0.084921	0.357915	3413.609131
9386.840491	0.084888	0.357915	3493.488525
9386.841409	0.084965	0.357915	3571.486084
9387.880932	1.184257	0.327336	538.836792
9387.881827	1.655457	0.327336	2020.470337
9387.882787	0.757892	0.327336	2748.046387
9387.883698	0.088627	0.327336	2828.785400
9387.884618	0.084921	0.327336	2906.912354
9387.885507	0.084910	0.327336	2982.396973
9387.886469	0.084880	0.327336	3064.052002
9387.887373	0.084902	0.327336	3140.803711
9387.888263	0.084884	0.327336	3216.350586
9387.889216	0.085023	0.327336	3297.377686
9387.890133	0.084939	0.327336	3375.266602
9387.891050	0.084895	0.327336	3453.115234
9387.891935	0.084979	0.327336	3528.321777
9388.897741	1.163654	0.358918	510.843933
9388.898696	1.656782	0.358918	2093.070801
9388.899620	0.752791	0.358918	2788.649170
9388.900512	0.089026	0.358918	2868.060303
9388.901442	0.084968	0.358918	2947.080811
9388.902339	0.084990	0.358918	3023.317139
9388.903226	0.085045	0.358918	3098.752197
9388.904118	0.084983	0.358918	3174.556885
9388.905047	0.085027	0.358918	3253.546875
9388.905952	0.084968	0.358918	3330.443115
9388.906853	0.084950	0.358918	3406.982910
9388.907742	0.085016	0.358918	3482.562012
9388.908702	0.084965	0.358918	3564.127930
9389.948375	1.177665	0.328605	524.060791
9389.949275	1.655325	0.328605	2013.853027
9389.950218	0.794930	0.328605	2763.472412
9389.951169	0.088279	0.328605	2847.425537
9389.952084	0.084884	0.328605	2925.094482
9389.952974	0.084917	0.328605	3000.670654
9389.953919	0.084932	0.328605	3080.931152
9389.954863	0.084943	0.328605	3161.116943
9389.955755	0.084825	0.328605	3236.781250
9389.956669	0.084939	0.328605	3314.415527
9389.957606	0.084968	0.328605	3394.030762
9389.958521	0.084895	0.328605	3471.709717
9389.959413	0.084851	0.328605	3547.396973
9390.967252	1.168370	0.356723	518.756470
9390.968173	1.654098	0.356723	2042.180664
9390.969126	0.760591	0.356723	2767.023682
9390.970022	0.088740	0.356723	2846.534912
9390.970913	0.084833	0.356723	2922.120850
9390.971856	0.084998	0.356723	3002.273437
9390.972770	0.084847	0.356723	3079.823975
9390.973670	0.084935	0.356723	3156.265869
9390.974557	0.084939	0.356723	3231.606689
9390.975514	0.084983	0.356723	3312.935303
9390.976411	0.084910	0.356723	3389.099365
9390.977302	0.084917	0.356723	3464.760498
9390.978222	0.084895	0.356723	3542.864014
9392.016884	1.184286	0.328674	564.904358
9392.017827	1.656793	0.328674	2127.260498
9392.018759	0.698108	0.328674	2777.896973
9392.019645	0.088195	0.328674	2856.037354
9392.020592	0.084939	0.328674	2936.474609
9392.021526	0.084902	0.328674	3015.773437
9392.022426	0.084943	0.328674	3092.221680
9392.023348	0.084994	0.328674	3170.585937
9392.024278	0.084866	0.328674	3249.510986
9392.025196	0.084807	0.328674	3327.364014
9392.026096	0.084917	0.328674	3403.789307
9392.027048	0.084902	0.328674	3484.616455
9392.027980	0.084935	0.328674	3563.776123
9393.034700	1.162632	0.357810	513.883301
9393.035664	1.656727	0.357810	2110.968262
9393.036592	0.709603	0.357810	2769.479980
9393.037517	0.087382	0.357810	2850.307861
9393.038418	0.084844	0.357810	2926.751953
9393.039370	0.084858	0.357810	3007.537109
9393.040273	0.084906	0.357810	3084.207275
9393.041194	0.084902	0.357810	3162.402344
9393.042083	0.084869	0.357810	3237.851318
9393.043042	0.084877	0.357810	3319.248047
9393.043959	0.084851	0.357810	3397.056396
9393.044846	0.084910	0.357810	3472.371338
9393.045781	0.084899	0.357810	3551.751709
9394.085334	1.176746	0.327538	526.005249
9394.086242	1.655090	0.327538	2028.827271
9394.087142	0.849998	0.327538	2793.825195
9394.088090	0.089147	0.327538	2878.336182
9394.089000	0.084869	0.327538	2955.567383
9394.089900	0.084855	0.327538	3031.936523
9394.090822	0.084965	0.327538	3110.273926
9394.091739	0.084979	0.327538	3188.199951
9394.092645	0.084917	0.327538	3265.134766
9394.093535	0.084873	0.327538	3340.671875
9394.094472	0.084954	0.327538	3420.273437
9394.095364	0.084917	0.327538	3496.019287
9394.096266	0.084888	0.327538	3572.587891
9395.103215	1.178210	0.356912	557.293518
9395.104154	1.657108	0.356912	2113.318115
9395.105055	0.751758	0.356912	2790.651855
9395.105979	0.088967	0.356912	2872.857666
9395.106922	0.084844	0.356912	2952.865234
9395.107840	0.084910	0.356912	3030.812256
9395.108729	0.084884	0.356912	3106.274170
9395.109666	0.084895	0.356912	3185.820801
9395.110599	0.084888	0.356912	3265.020996
9395.111498	0.084935	0.356912	3341.377930
9395.112413	0.084873	0.356912	3419.036865
9395.113341	0.084888	0.356912	3497.812744
9395.114280	0.084877	0.356912	3577.511963
9396.152790	1.170982	0.326958	523.428772
9396.153687	1.654878	0.326958	2007.854248
9396.154640	0.792059	0.326958	2762.686768
9396.155547	0.089392	0.326958	2843.765381
9396.156443	0.084855	0.326958	2919.795166
9396.157332	0.084888	0.326958	2995.260254
9396.158278	0.084946	0.326958	3075.619385
9396.159169	0.084825	0.326958	3151.198730
9396.160081	0.084844	0.326958	3228.576172
9396.160981	0.085005	0.326958	3305.080566
9396.161927	0.084877	0.326958	3385.374023
9396.162838	0.084862	0.326958	3462.683350
9396.163727	0.084884	0.326958	3538.145264
9397.171671	1.163445	0.357081	511.915741
9397.172567	1.654314	0.357081	1994.181030
9397.173543	0.777616	0.357081	2753.134277
9397.174461	0.088315	0.357081	2834.207764
9397.175366	0.084829	0.357081	2910.978027
9397.176289	0.084906	0.357081	2989.346191
9397.177225	0.084950	0.357081	3068.859375
9397.178155	0.084888	0.357081	3147.804932
9397.179056	0.084877	0.357081	3224.278809
9397.179975	0.084855	0.357081	3302.260254
9397.180909	0.084818	0.357081	3381.480469
9397.181830	0.084792	0.357081	3459.574219
9397.182718	0.084862	0.357081	3534.931641
9398.222316	1.196488	0.325185	550.384460
9398.223215	1.655394	0.325185	2038.583984
9398.224111	0.846438	0.325185	2796.992432
9398.225045	0.091560	0.325185	2882.509521
9398.225957	0.084738	0.325185	2959.790039
9398.226881	0.084811	0.325185	3038.155273
9398.227778	0.084895	0.325185	3114.306152
9398.228710	0.084803	0.325185	3193.343018
9398.229620	0.084917	0.325185	3270.617432
9398.230540	0.084895	0.325185	3348.720947
9398.231429	0.084785	0.325185	3424.094971
9398.232383	0.084836	0.325185	3505.028809
9398.233299	0.084862	0.325185	3582.762451
9399.239126	1.166283	0.358797	511.998230
9399.240025	1.654398	0.358797	1999.302246
9399.240999	0.749334	0.358797	2729.153076
9399.241914	0.088455	0.358797	2810.089111
9399.242815	0.084891	0.358797	2886.576172
9399.243745	0.084932	0.358797	2965.562500
9399.244651	0.084972	0.358797	3042.547119
9399.245546	0.084928	0.358797	3118.557617
9399.246441	0.084884	0.358797	3194.528809
9399.247374	0.085031	0.358797	3273.862305
9399.248273	0.084946	0.358797	3350.229004
9399.249175	0.084928	0.358797	3426.833984
9399.250070	0.084851	0.358797	3502.775635
9400.289792	1.190779	0.323489	576.336914
9400.290697	1.656584	0.323489	2075.545898
9400.291597	0.783959	0.323489	2781.108887
9400.292521	0.089528	0.323489	2863.832275
9400.293457	0.084803	0.323489	2943.208252
9400.294376	0.084957	0.323489	3021.283936
9400.295272	0.084877	0.323489	3097.333496
9400.296228	0.084902	0.323489	3178.500244
9400.297157	0.084939	0.323489	3257.408447
9400.298069	0.084829	0.323489	3334.772461
9400.298957	0.084939	0.323489	3410.198242
9400.299900	0.084888	0.323489	3490.247314
9400.300814	0.084924	0.323489	3567.868164
9401.308632	1.173464	0.359430	518.671265
9401.309544	1.655116	0.359430	2028.136963
9401.310444	0.851133	0.359430	2794.156494
9401.311369	0.091586	0.359430	2878.873291
9401.312308	0.084917	0.359430	2958.610352
9401.313227	0.084899	0.359430	3036.632324
9401.314115	0.084990	0.359430	3112.103760
9401.315074	0.084961	0.359430	3193.581299
9401.315972	0.085005	0.359430	3269.915771
9401.316891	0.084906	0.359430	3347.944336
9401.317788	0.084961	0.359430	3424.154297
9401.318726	0.084946	0.359430	3503.833984
9401.319648	0.084866	0.359430	3582.080078
9402.358224	1.173289	0.324976	524.460022
9402.359122	1.655105	0.324976	2010.744141
9402.360077	0.817467	0.324976	2791.425293
9402.360985	0.089158	0.324976	2872.380371
9402.361888	0.084880	0.324976	2949.027344
9402.362775	0.084954	0.324976	3024.381104
9402.363723	0.084932	0.324976	3104.896240
9402.364630	0.084906	0.324976	3181.906006
9402.365527	0.084888	0.324976	3258.050293
9402.366415	0.084965	0.324976	3333.498779
9402.367367	0.084976	0.324976	3414.395508
9402.368277	0.084895	0.324976	3491.649902
9402.369177	0.084943	0.324976	3568.098145
9403.376116	1.191636	0.360912	561.260437
9403.377054	1.656958	0.360912	2115.487061
9403.377951	0.759353	0.360912	2796.626709
9403.378878	0.088975	0.360912	2879.106201
9403.379810	0.084781	0.360912	2958.122559
9403.380727	0.084818	0.360912	3035.900879
9403.381624	0.084866	0.360912	3112.025391
9403.382576	0.084851	0.360912	3192.803711
9403.383516	0.084844	0.360912	3272.556885
9403.384418	0.084822	0.360912	3349.066162
9403.385331	0.084825	0.360912	3426.511719
9403.386271	0.084873	0.360912	3506.292480
9403.387201	0.084847	0.360912	3585.200684
9404.425704	1.194104	0.321056	551.676025
9404.426646	1.657002	0.321056	2112.571777
9404.427547	0.753094	0.321056	2791.109863
9404.428503	0.087491	0.321056	2874.751709
9404.429422	0.084873	0.321056	2952.750000
9404.430311	0.084998	0.321056	3028.312744
9404.431248	0.084829	0.321056	3107.797607
9404.432162	0.084946	0.321056	3185.438477
9404.433073	0.084858	0.321056	3262.744385
9404.433971	0.084935	0.321056	3339.016357
9404.434918	0.084921	0.321056	3419.436279
9404.435836	0.084825	0.321056	3497.306152
9404.436760	0.084924	0.321056	3575.776123
9405.445571	1.154282	0.361875	499.804199
9405.446538	1.654442	0.361875	2099.649658
9405.447464	0.735469	0.361875	2780.693848
9405.448365	0.088568	0.361875	2860.493652
9405.449256	0.084818	0.361875	2936.066650
9405.450205	0.084979	0.361875	3016.711914
9405.451107	0.084921	0.361875	3093.310303
9405.452012	0.084954	0.361875	3170.193359
9405.452907	0.084950	0.361875	3246.223633
9405.453846	0.084954	0.361875	3325.995117
9405.454756	0.084814	0.361875	3403.176270
9405.455644	0.084888	0.361875	3478.556641
9405.456579	0.084935	0.361875	3557.971191
9406.494169	1.164606	0.321572	517.084961
9406.495065	1.654405	0.321572	1999.432251
9406.496028	0.791067	0.321572	2761.229736
9406.496957	0.088235	0.321572	2843.199951
9406.497857	0.084935	0.321572	2919.641846
9406.498777	0.084924	0.321572	2997.772217
9406.499709	0.084921	0.321572	3076.918213
9406.500642	0.084946	0.321572	3156.173096
9406.501540	0.084976	0.321572	3232.481201
9406.502468	0.084888	0.321572	3311.257080
9406.503406	0.084957	0.321572	3390.947021
9406.504332	0.084862	0.321572	3469.529297
9406.505222	0.084965	0.321572	3545.147705
9407.514065	1.171388	0.362906	518.924927
9407.515037	1.657339	0.362906	2129.858398
9407.515974	0.681160	0.362906	2768.104980
9407.516865	0.087708	0.362906	2846.252441
9407.517814	0.084840	0.362906	2926.765625
9407.518726	0.084873	0.362906	3004.169922
9407.519649	0.084855	0.362906	3082.490723
9407.520541	0.084954	0.362906	3158.269287
9407.521468	0.084983	0.362906	3237.048340
9407.522412	0.084858	0.362906	3317.154785
9407.523323	0.084877	0.362906	3394.477539
9407.524225	0.084877	0.362906	3471.036377
9407.525172	0.084858	0.362906	3551.397217
9408.561616	1.169205	0.319707	519.127136
9408.562518	1.655208	0.319707	2012.124268
9408.563474	0.780132	0.319707	2757.930176
9408.564398	0.088766	0.319707	2839.949951
9408.565305	0.084968	0.319707	2917.016113
9408.566195	0.084910	0.319707	2992.585693
9408.567144	0.085052	0.319707	3073.300537
9408.568043	0.084950	0.319707	3149.670654
9408.568931	0.084950	0.319707	3225.106201
9408.569863	0.084924	0.319707	3304.255615
9408.570777	0.084891	0.319707	3381.846191
9408.571682	0.084877	0.319707	3458.659668
9408.572572	0.085023	0.319707	3534.330322
9409.582569	1.171212	0.363498	549.298523
9409.583494	1.656614	0.363498	2081.666260
9409.584409	0.766047	0.363498	2782.599609
9409.585297	0.089290	0.363498	2861.888672
9409.586244	0.084844	0.363498	2942.235596
9409.587148	0.084928	0.363498	3019.010498
9409.588047	0.084902	0.363498	3095.337646
9409.588936	0.084939	0.363498	3170.848389
9409.589872	0.084983	0.363498	3250.392334
9409.590779	0.084910	0.363498	3327.405518
9409.591676	0.084921	0.363498	3403.579346
9409.592594	0.084946	0.363498	3481.560059
9409.593501	0.085012	0.363498	3558.666016
9410.629071	1.172219	0.321648	521.637512
9410.630005	1.656522	0.321648	2068.829102
9410.630914	0.795641	0.321648	2792.066650
9410.631866	0.088403	0.321648	2876.226562
9410.632803	0.084847	0.321648	2955.728516
9410.633693	0.084921	0.321648	3031.307861
9410.634619	0.084836	0.321648	3109.866455
9410.635544	0.084866	0.321648	3188.367187
9410.636460	0.085012	0.321648	3266.238281
9410.637355	0.084840	0.321648	3342.170166
9410.638313	0.084891	0.321648	3423.496094
9410.639255	0.084917	0.321648	3503.487793
9410.640154	0.084844	0.321648	3579.762207
9411.652040	1.159479	0.362097	507.851715
9411.653014	1.654391	0.362097	2119.228516
9411.653933	0.726764	0.362097	2787.124512
9411.654834	0.088180	0.362097	2866.574707
9411.655728	0.084825	0.362097	2942.408691
9411.656667	0.084921	0.362097	3022.149170
9411.657575	0.084847	0.362097	3099.190674
9411.658480	0.084818	0.362097	3175.951172
9411.659372	0.084924	0.362097	3251.703613
9411.660311	0.084921	0.362097	3331.444092
9411.661211	0.084829	0.362097	3407.790283
9411.662100	0.084877	0.362097	3483.245605
9411.663051	0.084866	0.362097	3563.952881
9412.695556	1.227404	0.323183	607.564758
9412.696492	1.657086	0.323183	2158.597412
9412.697420	0.682515	0.323183	2791.970947
9412.698308	0.087733	0.323183	2869.877930
9412.699259	0.084767	0.323183	2950.491211
9412.700199	0.084763	0.323183	3030.168701
9412.701102	0.084924	0.323183	3106.855469
9412.702017	0.084738	0.323183	3184.390381
9412.702953	0.084785	0.323183	3263.749268
9412.703874	0.084800	0.323183	3341.849854
9412.704765	0.084814	0.323183	3417.419434
9412.705720	0.084789	0.323183	3498.392822
9412.706652	0.084844	0.323183	3577.467285
9413.721581	1.191779	0.358942	557.752380
9413.722488	1.656431	0.358942	2060.135010
9413.723389	0.801097	0.358942	2781.923828
9413.724361	0.088184	0.358942	2867.638184
9413.725283	0.084917	0.358942	2945.931641
9413.726174	0.084932	0.358942	3021.605713
9413.727108	0.084825	0.358942	3100.832764
9413.728027	0.084851	0.358942	3178.810791
9413.728955	0.084873	0.358942	3257.572998
9413.729847	0.084851	0.358942	3333.260254
9413.730795	0.084825	0.358942	3413.674805
9413.731719	0.084858	0.358942	3492.083984
9413.732633	0.084847	0.358942	3569.634521
9414.762959	1.169465	0.326418	516.903687
9414.763879	1.655533	0.326418	2039.994385
9414.764794	0.811172	0.326418	2782.216553
9414.765733	0.089337	0.326418	2866.104248
9414.766632	0.084921	0.326418	2942.447998
9414.767533	0.084965	0.326418	3019.000977
9414.768426	0.084924	0.326418	3094.838379
9414.769369	0.085074	0.326418	3175.063477
9414.770275	0.084939	0.326418	3252.018066
9414.771169	0.084880	0.326418	3327.901123
9414.772057	0.084939	0.326418	3403.326904
9414.772995	0.085027	0.326418	3483.082031
9414.773900	0.084866	0.326418	3559.885498
9415.790031	1.172058	0.355909	519.221741
9415.790965	1.654420	0.355909	2064.450195
9415.791925	0.740295	0.355909	2775.133789
9415.792842	0.087828	0.355909	2855.672363
9415.793728	0.084891	0.355909	2930.886230
9415.794660	0.084895	0.355909	3010.008301
9415.795582	0.084895	0.355909	3088.281494
9415.796502	0.084943	0.355909	3166.428711
9415.797393	0.084946	0.355909	3242.115967
9415.798339	0.084917	0.355909	3322.447510
9415.799277	0.084778	0.355909	3401.969238
9415.800180	0.084924	0.355909	3478.656006
9415.801095	0.084910	0.355909	3556.348389
9416.831455	1.173951	0.327445	524.756287
9416.832351	1.654647	0.327445	2007.320068
9416.833322	0.749572	0.327445	2735.154053
9416.834222	0.088909	0.327445	2815.171875
9416.835113	0.084891	0.327445	2890.810059
9416.836016	0.084917	0.327445	2967.489990
9416.836944	0.084950	0.327445	3046.323486
9416.837853	0.084921	0.327445	3123.516357
9416.838745	0.084921	0.327445	3199.265625
9416.839689	0.084950	0.327445	3279.458496
9416.840596	0.084917	0.327445	3356.478271
9416.841513	0.084950	0.327445	3434.377441
9416.842402	0.084910	0.327445	3509.862061
9417.857482	1.159460	0.356348	510.162598
9417.858459	1.656002	0.356348	2128.076660
9417.859404	0.685353	0.356348	2775.735107
9417.860312	0.087327	0.356348	2855.027832
9417.861208	0.084869	0.356348	2931.070801
9417.862165	0.084950	0.356348	3012.367920
9417.863103	0.084950	0.356348	3092.051025
9417.863998	0.084924	0.356348	3168.058350
9417.864921	0.084943	0.356348	3246.460449
9417.865869	0.084902	0.356348	3326.947754
9417.866783	0.084979	0.356348	3404.618896
9417.867672	0.084880	0.356348	3480.077637
9417.868611	0.084954	0.356348	3559.849121
9418.899980	1.218571	0.327546	612.940979
9418.900885	1.656940	0.327546	2112.471436
9418.901807	0.723494	0.327546	2779.532715
9418.902703	0.088451	0.327546	2858.784668
9418.903650	0.084932	0.327546	2939.214844
9418.904575	0.084840	0.327546	3017.691895
9418.905471	0.084888	0.327546	3093.751221
9418.906400	0.084943	0.327546	3172.662842
9418.907325	0.084902	0.327546	3251.197510
9418.908244	0.084888	0.327546	3329.209229
9418.909135	0.084954	0.327546	3404.902832
9418.910073	0.084968	0.327546	3484.603027
9418.910973	0.084840	0.327546	3560.958984
9419.925969	1.172120	0.353258	519.249329
9419.926869	1.654596	0.353258	2008.385498
9419.927766	0.874944	0.353258	2793.210205
9419.928728	0.089304	0.353258	2879.120850
9419.929621	0.084825	0.353258	2954.869873
9419.930521	0.084961	0.353258	3031.334717
9419.931406	0.084836	0.353258	3106.415039
9419.932345	0.084976	0.353258	3186.207031
9419.933245	0.084803	0.353258	3262.530029
9419.934145	0.084866	0.353258	3338.909180
9419.935073	0.085078	0.353258	3417.861572
9419.935977	0.084994	0.353258	3494.696045
9419.936874	0.084932	0.353258	3570.879639
9420.968419	1.200308	0.327489	550.941162
9420.969316	1.655545	0.327489	2035.964600
9420.970264	0.761338	0.327489	2757.712891
9420.971203	0.087913	0.327489	2840.262695
9420.972119	0.084752	0.327489	2917.895752
9420.973009	0.084803	0.327489	2993.370850
9420.973955	0.084752	0.327489	3073.546387
9420.974886	0.084814	0.327489	3152.508545
9420.975786	0.084822	0.327489	3228.848145
9420.976710	0.084767	0.327489	3307.172607
9420.977649	0.084844	0.327489	3386.840820
9420.978578	0.084807	0.327489	3465.626709
9420.979479	0.084866	0.327489	3542.090820
9421.994437	1.157135	0.352948	503.353729
9421.995396	1.654933	0.352948	2090.434326
9421.996316	0.756182	0.352948	2786.121582
9421.997211	0.088964	0.352948	2865.744141
9421.998097	0.084760	0.352948	2940.841064
9421.999055	0.084935	0.352948	3022.208984
9421.999952	0.084796	0.352948	3098.270996
9422.000845	0.084800	0.352948	3173.997314
9422.001756	0.084822	0.352948	3251.270020
9422.002696	0.084792	0.352948	3330.974854
9422.003599	0.084840	0.352948	3407.585449
9422.004489	0.084833	0.352948	3483.086670
9422.005414	0.084888	0.352948	3561.607910
9423.036880	1.167484	0.327928	517.195435
9423.037862	1.656281	0.327928	2143.663086
9423.038794	0.683086	0.327928	2780.299072
9423.039716	0.087206	0.327928	2860.702881
9423.040602	0.084792	0.327928	2935.829102
9423.041548	0.084880	0.327928	3016.125977
9423.042444	0.084811	0.327928	3092.116455
9423.043348	0.084836	0.327928	3168.808594
9423.044237	0.084774	0.327928	3244.172852
9423.045179	0.084855	0.327928	3324.105957
9423.046091	0.084873	0.327928	3401.510254
9423.046990	0.084708	0.327928	3477.663086
9423.047913	0.084767	0.327928	3555.902832
9424.062965	1.208064	0.348582	571.414246
9424.063868	1.655852	0.348582	2066.648682
9424.064802	0.766186	0.348582	2782.266846
9424.065689	0.089037	0.348582	2861.242432
9424.066641	0.084705	0.348582	2941.881104
9424.067562	0.084679	0.348582	3019.870361
9424.068457	0.084807	0.348582	3095.772705
9424.069389	0.084756	0.348582	3174.765137
9424.070296	0.084697	0.348582	3251.585449
9424.071214	0.084789	0.348582	3329.421631
9424.072108	0.084847	0.348582	3405.275146
9424.073053	0.084792	0.348582	3485.404053
9424.073976	0.084792	0.348582	3563.667480
9425.104358	1.173864	0.332085	547.020386
9425.105297	1.656896	0.332085	2102.845459
9425.106221	0.730210	0.332085	2777.559570
9425.107114	0.088392	0.332085	2856.493896
9425.108046	0.084851	0.332085	2935.575195
9425.108950	0.084760	0.332085	3012.197754
9425.109853	0.084741	0.332085	3088.718994
9425.110742	0.084792	0.332085	3164.099609
9425.111690	0.084855	0.332085	3244.541992
9425.112594	0.084785	0.332085	3321.187744
9425.113492	0.084752	0.332085	3397.295166
9425.114428	0.084862	0.332085	3476.726074
9425.115335	0.084807	0.332085	3553.646240
9426.131408	1.183356	0.350354	525.409912
9426.132348	1.656544	0.350354	2082.561523
9426.133261	0.776613	0.350354	2791.608887
9426.134214	0.087524	0.350354	2875.019531
9426.135158	0.084756	0.350354	2955.029053
9426.136056	0.084774	0.350354	3031.156250
9426.136983	0.084778	0.350354	3109.745361
9426.137920	0.084778	0.350354	3189.182129
9426.138843	0.084847	0.350354	3267.496338
9426.139729	0.084792	0.350354	3342.622559
9426.140661	0.084796	0.350354	3421.652588
9426.141593	0.084760	0.350354	3500.648437
9426.142495	0.084800	0.350354	3577.137939
9427.173831	1.158721	0.328480	505.202240
9427.174730	1.653856	0.328480	1992.018921
9427.175733	0.720311	0.328480	2714.491211
9427.176636	0.088114	0.328480	2794.058105
9427.177527	0.084866	0.328480	2869.673584
9427.178464	0.085012	0.328480	2949.330078
9427.179375	0.084869	0.328480	3026.645996
9427.180274	0.084950	0.328480	3103.016113
9427.181160	0.084888	0.328480	3178.226562
9427.182099	0.084939	0.328480	3257.984375
9427.183006	0.084888	0.328480	3334.977539
9427.183924	0.084844	0.328480	3412.864014
9427.184814	0.084847	0.328480	3488.378174
9428.199884	1.165115	0.350004	511.485382
9428.200840	1.654160	0.350004	2092.862549
9428.201762	0.753992	0.350004	2788.042969
9428.202659	0.088835	0.350004	2867.728271
9428.203546	0.084924	0.350004	2943.056152
9428.204491	0.084895	0.350004	3023.281982
9428.205394	0.084895	0.350004	3099.942139
9428.206299	0.084866	0.350004	3176.745605
9428.207189	0.084950	0.350004	3252.351074
9428.208141	0.085115	0.350004	3333.380371
9428.209046	0.084899	0.350004	3410.213623
9428.209947	0.084935	0.350004	3486.740234
9428.210878	0.085001	0.350004	3565.876465
9429.241306	1.168883	0.330148	518.984070
9429.242201	1.654061	0.330148	1999.368896
9429.243191	0.737124	0.330148	2729.121582
9429.244118	0.087814	0.330148	2810.524902
9429.245012	0.084884	0.330148	2886.411133
9429.245920	0.084836	0.330148	2963.442627
9429.246856	0.084855	0.330148	3042.866699
9429.247775	0.084935	0.330148	3120.922363
9429.248670	0.084884	0.330148	3196.893555
9429.249621	0.084946	0.330148	3277.677490
9429.250553	0.084932	0.330148	3356.833740
9429.251451	0.084891	0.330148	3433.066162
9429.252370	0.084976	0.330148	3511.158691
9430.267336	1.165946	0.350656	513.016296
9430.268301	1.656863	0.350656	2111.888916
9430.269226	0.726764	0.350656	2784.145508
9430.270116	0.088385	0.350656	2862.808105
9430.271046	0.084913	0.350656	2941.777588
9430.271954	0.084946	0.350656	3018.908936
9430.272862	0.084862	0.350656	3095.963623
9430.273751	0.084891	0.350656	3171.432129
9430.274692	0.084998	0.350656	3251.414795
9430.275607	0.084921	0.350656	3329.117187
9430.276501	0.084888	0.350656	3405.006836
9430.277389	0.084851	0.350656	3480.354492
9430.278326	0.084961	0.350656	3559.962891
9431.309815	1.201080	0.330547	582.523926
9431.310769	1.657247	0.330547	2163.537842
9431.311701	0.655609	0.330547	2774.565430
9431.312596	0.087345	0.330547	2852.739258
9431.313545	0.084921	0.330547	2933.328857
9431.314486	0.084888	0.330547	3013.208252
9431.315385	0.084902	0.330547	3089.535400
9431.316309	0.084924	0.330547	3168.005371
9431.317252	0.084880	0.330547	3248.047607
9431.318167	0.084902	0.330547	3325.733154
9431.319057	0.084928	0.330547	3401.319092
9431.319998	0.084880	0.330547	3481.191406
9431.320920	0.084855	0.330547	3559.427490
9432.335823	1.162196	0.352231	513.690674
9432.336724	1.654933	0.352231	2004.785156
9432.337621	0.863163	0.352231	2779.042236
9432.338582	0.089440	0.352231	2864.993896
9432.339478	0.084935	0.352231	2941.095947
9432.340366	0.084924	0.352231	3016.508789
9432.341313	0.084965	0.352231	3096.970215
9432.342221	0.084877	0.352231	3174.038330
9432.343124	0.084891	0.352231	3250.695312
9432.344012	0.084829	0.352231	3326.023437
9432.344954	0.084921	0.352231	3406.018799
9432.345865	0.084902	0.352231	3483.364746
9432.346785	0.084983	0.352231	3561.549072
9433.377275	1.228879	0.329435	594.777588
9433.378197	1.657203	0.329435	2122.718994
9433.379110	0.744313	0.329435	2802.276367
9433.379997	0.089011	0.329435	2881.229248
9433.380943	0.084932	0.329435	2961.574707
9433.381847	0.084774	0.329435	3038.210449
9433.382742	0.084836	0.329435	3114.139160
9433.383675	0.084895	0.329435	3193.346191
9433.384582	0.085042	0.329435	3270.478760
9433.385485	0.084851	0.329435	3347.099365
9433.386370	0.084888	0.329435	3422.225098
9433.387305	0.084965	0.329435	3501.666992
9433.388210	0.084935	0.329435	3578.533447
9434.404312	1.178489	0.352332	527.962952
9434.405204	1.654581	0.352332	2003.849365
9434.406187	0.735623	0.352332	2726.966309
9434.407132	0.087740	0.352332	2809.881104
9434.408024	0.084990	0.352332	2885.692383
9434.408944	0.084796	0.352332	2963.704834
9434.409881	0.084902	0.352332	3043.258301
9434.410799	0.084946	0.352332	3121.239014
9434.411692	0.084946	0.352332	3197.095947
9434.412641	0.084792	0.352332	3277.563965
9434.413579	0.084943	0.352332	3357.240234
9434.414478	0.084873	0.352332	3433.541016
9434.415397	0.084943	0.352332	3511.603271
9435.445733	1.178306	0.329238	531.415894
9435.446633	1.655453	0.329238	2021.323486
9435.447576	0.815098	0.329238	2789.960449
9435.448491	0.089315	0.329238	2871.683838
9435.449384	0.084858	0.329238	2947.462402
9435.450270	0.084902	0.329238	3022.685791
9435.451205	0.084987	0.329238	3102.148193
9435.452111	0.084858	0.329238	3179.029785
9435.453032	0.084858	0.329238	3257.184326
9435.453919	0.084891	0.329238	3332.482910
9435.454871	0.084888	0.329238	3413.295898
9435.455772	0.084987	0.329238	3489.868896
9435.456665	0.084950	0.329238	3565.729248
9436.471773	1.191800	0.352836	539.885620
9436.472677	1.655621	0.352836	2036.567261
9436.473630	0.759291	0.352836	2760.171387
9436.474536	0.088777	0.352836	2840.603271
9436.475450	0.084895	0.352836	2918.197266
9436.476340	0.084866	0.352836	2993.727783
9436.477279	0.085009	0.352836	3073.550781
9436.478188	0.084829	0.352836	3150.660400
9436.479084	0.084913	0.352836	3226.742676
9436.480030	0.084939	0.352836	3307.094971
9436.480929	0.084880	0.352836	3383.402344
9436.481825	0.084858	0.352836	3459.435547
9436.482715	0.084913	0.352836	3535.008301
9437.514183	1.155194	0.327272	501.354218
9437.515078	1.653659	0.327272	1981.378662
9437.516041	0.793553	0.327272	2745.570801
9437.516983	0.088400	0.327272	2828.843262
9437.517887	0.084811	0.327272	2905.512207
9437.518809	0.084825	0.327272	2983.721191
9437.519740	0.084855	0.327272	3062.720947
9437.520655	0.084840	0.327272	3140.349609
9437.521546	0.084833	0.327272	3215.935547
9437.522497	0.084877	0.327272	3296.653320
9437.523433	0.084738	0.327272	3375.967773
9437.524336	0.084902	0.327272	3452.634521
9437.525250	0.084895	0.327272	3530.228516
9438.540229	1.158007	0.354084	502.574890
9438.541180	1.654307	0.354084	2075.820557
9438.542107	0.762165	0.354084	2782.347900
9438.543029	0.088242	0.354084	2863.707275
9438.543917	0.084990	0.354084	2939.178711
9438.544866	0.084825	0.354084	3019.677979
9438.545769	0.084807	0.354084	3096.258789
9438.546691	0.084928	0.354084	3174.562500
9438.547577	0.084880	0.354084	3249.766602
9438.548525	0.084899	0.354084	3330.250488
9438.549447	0.084902	0.354084	3408.530518
9438.550344	0.084921	0.354084	3484.704346
9438.551273	0.084862	0.354084	3563.541260
9439.582664	1.164965	0.325805	511.419434
9439.583639	1.657555	0.325805	2127.535400
9439.584563	0.715485	0.325805	2788.643066
9439.585451	0.088323	0.325805	2867.073730
9439.586375	0.084917	0.325805	2945.537109
9439.587284	0.084935	0.325805	3022.743408
9439.588176	0.084869	0.325805	3098.446777
9439.589064	0.084961	0.325805	3173.892090
9439.590008	0.084979	0.325805	3254.112549
9439.590910	0.084961	0.325805	3330.747314
9439.591814	0.084954	0.325805	3407.545410
9439.592706	0.084888	0.325805	3483.265137
9439.593658	0.085020	0.325805	3564.203613
9440.608770	1.236354	0.355825	610.758728
9440.609710	1.657555	0.355825	2168.860352
9440.610647	0.661263	0.355825	2788.464111
9440.611537	0.087448	0.355825	2866.292480
9440.612466	0.084932	0.355825	2945.194092
9440.613396	0.084906	0.355825	3024.156738
9440.614313	0.084950	0.355825	3102.055908
9440.615212	0.084891	0.355825	3178.373291
9440.616173	0.084807	0.355825	3259.873047
9440.617114	0.084913	0.355825	3339.776611
9440.618016	0.084877	0.355825	3416.335449
9440.618935	0.084902	0.355825	3494.360596
9440.619870	0.084884	0.355825	3573.727051
9441.651149	1.181448	0.325463	522.199890
9441.652117	1.656387	0.325463	2125.582275
9441.653046	0.708398	0.325463	2783.684570
9441.653936	0.088253	0.325463	2862.229980
9441.654863	0.084884	0.325463	2940.917480
9441.655804	0.084928	0.325463	3020.834717
9441.656720	0.084983	0.325463	3098.678955
9441.657622	0.084913	0.325463	3175.270752
9441.658567	0.084935	0.325463	3255.534668
9441.659504	0.084913	0.325463	3335.098389
9441.660400	0.084935	0.325463	3411.200439
9441.661320	0.084954	0.325463	3489.357666
9441.662267	0.084935	0.325463	3569.791504
9442.677275	1.246853	0.356457	637.141907
9442.678174	1.657269	0.356457	2127.027100
9442.679106	0.697467	0.356457	2777.066406
9442.680003	0.088088	0.356457	2856.081787
9442.680958	0.084899	0.356457	2937.159912
9442.681862	0.084961	0.356457	3013.964600
9442.682755	0.084987	0.356457	3089.857666
9442.683686	0.084994	0.356457	3168.987061
9442.684593	0.084976	0.356457	3246.059814
9442.685511	0.084972	0.356457	3324.063965
9442.686399	0.085001	0.356457	3399.545166
9442.687348	0.085071	0.356457	3480.277344
9442.688246	0.085009	0.356457	3556.614990
9443.718599	1.158992	0.323473	503.002380
9443.719557	1.655658	0.323473	2089.122559
9443.720486	0.735538	0.323473	2772.437500
9443.721398	0.088271	0.323473	2852.941162
9443.722293	0.084928	0.323473	2928.951660
9443.723248	0.085144	0.323473	3010.264160
9443.724148	0.084917	0.323473	3086.689453
9443.725042	0.084979	0.323473	3162.660889
9443.725979	0.085052	0.323473	3242.354980
9443.726872	0.085005	0.323473	3318.264404
9443.727769	0.084891	0.323473	3394.411865
9443.728663	0.084957	0.323473	3470.363770
9443.729612	0.085082	0.323473	3551.106445
9444.743628	1.158329	0.360062	507.347992
9444.744524	1.654354	0.360062	1989.649414
9444.745504	0.757566	0.360062	2732.063965
9444.746424	0.088381	0.360062	2813.374756
9444.747316	0.084950	0.360062	2889.150146
9444.748244	0.084895	0.360062	2967.932617
9444.749181	0.084976	0.360062	3047.554687
9444.750093	0.084921	0.360062	3125.002441
9444.750984	0.084979	0.360062	3200.718994
9444.751909	0.084965	0.360062	3279.311279
9444.752853	0.084983	0.360062	3359.535156
9444.753753	0.085038	0.360062	3436.069092
9444.754680	0.084884	0.360062	3514.756592
9445.788115	1.161185	0.322744	513.243896
9445.789015	1.654651	0.322744	2002.429565
9445.789915	0.868682	0.322744	2784.243164
9445.790884	0.089132	0.322744	2870.612061
9445.791787	0.084935	0.322744	2947.308594
9445.792709	0.084862	0.322744	3025.551514
9445.793606	0.084939	0.322744	3101.741699
9445.794559	0.084899	0.322744	3182.650146
9445.795474	0.084866	0.322744	3260.302246
9445.796371	0.084950	0.322744	3336.502441
9445.797313	0.084946	0.322744	3416.521729
9445.798215	0.084961	0.322744	3493.156494
9445.799136	0.084910	0.322744	3571.358398
9446.812112	1.168396	0.359716	518.767822
9446.813049	1.654156	0.359716	2068.712402
9446.814000	0.733447	0.359716	2766.220703
9446.814899	0.088425	0.359716	2845.715088
9446.815785	0.084924	0.359716	2920.958008
9446.816719	0.084979	0.359716	3000.328613
9446.817623	0.084954	0.359716	3077.126709
9446.818541	0.084943	0.359716	3155.104004
9446.819437	0.085056	0.359716	3231.314209
9446.820398	0.084961	0.359716	3312.961670
9446.821304	0.084965	0.359716	3389.939697
9446.822194	0.084921	0.359716	3465.519043
9446.823120	0.085063	0.359716	3544.287842
9447.856605	1.183239	0.319702	527.724426
9447.857506	1.655259	0.319702	2019.112549
9447.858407	0.856428	0.319702	2790.754395
9447.859368	0.089158	0.319702	2876.435059
9447.860267	0.084924	0.319702	2952.781982
9447.861171	0.084983	0.319702	3029.606445
9447.862098	0.084891	0.319702	3108.300781
9447.863014	0.084983	0.319702	3186.145020
9447.863920	0.084954	0.319702	3263.113037
9447.864820	0.084946	0.319702	3339.564697
9447.865758	0.085016	0.319702	3419.309570
9447.866657	0.085038	0.319702	3495.758545
9447.867555	0.084866	0.319702	3571.968018
9448.879586	1.199399	0.359651	552.923157
9448.880494	1.656086	0.359651	2056.649658
9448.881423	0.802760	0.359651	2802.413574
9448.882365	0.087993	0.359651	2885.303223
9448.883307	0.084961	0.359651	2965.336426
9448.884207	0.085042	0.359651	3041.873779
9448.885120	0.084943	0.359651	3119.426270
9448.886057	0.084987	0.359651	3199.058594
9448.886972	0.085038	0.359651	3276.868164
9448.887861	0.084979	0.359651	3352.414795
9448.888814	0.084979	0.359651	3433.399902
9448.889752	0.084924	0.359651	3513.058838
9448.890643	0.085067	0.359651	3588.853760
9449.926091	1.162006	0.317128	511.282501
9449.926990	1.654603	0.317128	1998.770752
9449.927967	0.773950	0.317128	2754.919922
9449.928902	0.087660	0.317128	2836.881836
9449.929815	0.084895	0.317128	2914.390869
9449.930708	0.084921	0.317128	2990.225098
9449.931657	0.084818	0.317128	3070.717529
9449.932596	0.084998	0.317128	3150.530273
9449.933494	0.084932	0.317128	3226.798828
9449.934414	0.084880	0.317128	3304.888672
9449.935350	0.084954	0.317128	3384.405273
9449.936265	0.084932	0.317128	3462.117676
9449.937154	0.084972	0.317128	3537.657715
9450.948058	1.163910	0.361359	517.939941
9450.948963	1.655662	0.361359	2016.313721
9450.949905	0.821268	0.361359	2789.948486
9450.950819	0.089121	0.361359	2871.405273
9450.951741	0.084910	0.361359	2949.691895
9450.952633	0.084939	0.361359	3025.457520
9450.953582	0.084921	0.361359	3106.047119
9450.954472	0.084932	0.361359	3181.636230
9450.955381	0.084932	0.361359	3258.839111
9450.956280	0.084987	0.361359	3335.241943
9450.957230	0.084862	0.361359	3415.860840
9450.958156	0.084972	0.361359	3494.544922
9450.959046	0.084873	0.361359	3570.082031
9451.994574	1.160039	0.318848	504.617004
9451.995519	1.654457	0.318848	2068.078613
9451.996447	0.758804	0.318848	2772.248535
9451.997352	0.088795	0.318848	2852.608154
9451.998242	0.084939	0.318848	2928.203857
9451.999188	0.085016	0.318848	3008.628906
9452.000094	0.084939	0.318848	3085.583496
9452.000991	0.084902	0.318848	3161.740967
9452.001877	0.084917	0.318848	3236.977539
9452.002809	0.085031	0.318848	3316.226074
9452.003718	0.084847	0.318848	3393.352295
9452.004634	0.084862	0.318848	3471.085937
9452.005534	0.084935	0.318848	3547.527832
9453.014474	1.162614	0.358995	509.224731
9453.015453	1.657090	0.358995	2131.515625
9453.016371	0.723025	0.358995	2795.252441
9453.017265	0.088158	0.358995	2874.065674
9453.018173	0.085005	0.358995	2951.250000
9453.019100	0.084983	0.358995	3030.029053
9453.020002	0.084873	0.358995	3106.584473
9453.020895	0.084979	0.358995	3182.470947
9453.021822	0.085042	0.358995	3261.304443
9453.022722	0.084935	0.358995	3337.746338
9453.023619	0.084891	0.358995	3413.893799
9453.024507	0.084946	0.358995	3489.326172
9453.025451	0.084957	0.358995	3569.525879
9454.064072	1.161270	0.319610	507.474792
9454.065041	1.655717	0.319610	2111.864014
9454.065982	0.715312	0.319610	2784.973145
9454.066869	0.088198	0.319610	2863.205078
9454.067799	0.084976	0.319610	2942.232422
9454.068744	0.084972	0.319610	3022.530762
9454.069657	0.085031	0.319610	3100.163574
9454.070560	0.084899	0.319610	3176.827148
9454.071512	0.084884	0.319610	3257.636719
9454.072448	0.084928	0.319610	3337.129395
9454.073348	0.084913	0.319610	3413.551514
9454.074271	0.084921	0.319610	3491.933350
9454.075206	0.084899	0.319610	3571.313721
9455.082991	1.182532	0.358761	564.067627
9455.083939	1.657419	0.358761	2135.301270
9455.084880	0.665731	0.358761	2761.754395
9455.085779	0.087312	0.358761	2840.247803
9455.086704	0.084807	0.358761	2918.694336
9455.087643	0.084880	0.358761	2998.396973
9455.088557	0.084913	0.358761	3076.007812
9455.089450	0.084869	0.358761	3151.796143
9455.090401	0.084932	0.358761	3232.566162
9455.091329	0.084818	0.358761	3311.277344
9455.092243	0.084994	0.358761	3388.961670
9455.093132	0.084921	0.358761	3464.456055
9455.094063	0.084873	0.358761	3543.472900
9456.131525	1.156794	0.320484	502.048767
9456.132490	1.655405	0.320484	2099.514648
9456.133412	0.735494	0.320484	2777.640381
9456.134338	0.087836	0.320484	2858.976318
9456.135235	0.084950	0.320484	2935.176514
9456.136189	0.084990	0.320484	3016.257080
9456.137094	0.084968	0.320484	3093.153320
9456.138014	0.084873	0.320484	3171.236572
9456.138903	0.084976	0.320484	3246.779785
9456.139854	0.084877	0.320484	3327.497559
9456.140765	0.084884	0.320484	3404.826904
9456.141653	0.084983	0.320484	3480.291748
9456.142568	0.084825	0.320484	3557.906982
9457.150426	1.175746	0.358411	520.855408
9457.151362	1.655076	0.358411	2070.006348
9457.152288	0.766256	0.358411	2779.559570
9457.153179	0.089341	0.358411	2859.162354
9457.154068	0.085038	0.358411	2934.760986
9457.155008	0.084968	0.358411	3014.631104
9457.155913	0.084972	0.358411	3091.530762
9457.156815	0.084946	0.358411	3168.152344
9457.157702	0.085016	0.358411	3243.561523
9457.158647	0.085001	0.358411	3323.887695
9457.159553	0.084891	0.358411	3400.799316
9457.160450	0.084895	0.358411	3476.950195
9457.161370	0.085020	0.358411	3555.168213
9458.201068	1.190076	0.321906	560.525635
9458.201976	1.655988	0.321906	2064.162109
9458.202878	0.811586	0.321906	2796.212402
9458.203806	0.089985	0.321906	2879.718750
9458.204743	0.084866	0.321906	2959.238037
9458.205664	0.084862	0.321906	3037.395996
9458.206551	0.084829	0.321906	3112.639404
9458.207489	0.084851	0.321906	3192.229736
9458.208424	0.084880	0.321906	3271.592773
9458.209324	0.084921	0.321906	3348.021484
9458.210244	0.084888	0.321906	3426.118164
9458.211182	0.084957	0.321906	3505.808105
9458.212104	0.084910	0.321906	3584.094727
9459.218891	1.158201	0.354954	507.291931
9459.219866	1.655735	0.354954	2121.633545
9459.220794	0.716338	0.354954	2786.395020
9459.221687	0.088129	0.354954	2865.093994
9459.222606	0.084880	0.354954	2943.099121
9459.223545	0.084844	0.354954	3022.767334
9459.224460	0.084913	0.354954	3100.463135
9459.225362	0.084891	0.354954	3177.035156
9459.226323	0.084833	0.354954	3258.559326
9459.227252	0.084877	0.354954	3337.409668
9459.228166	0.084891	0.354954	3415.000488
9459.229054	0.084913	0.354954	3490.403564
9459.229996	0.084884	0.354954	3570.364258
9460.269537	1.173702	0.320287	529.339783
9460.270447	1.655262	0.320287	2035.628662
9460.271343	0.844860	0.320287	2792.622803
9460.272294	0.088883	0.320287	2877.150635
9460.273204	0.084818	0.320287	2954.335205
9460.274095	0.084935	0.320287	3030.012451
9460.275005	0.084965	0.320287	3107.330322
9460.275947	0.084902	0.320287	3187.308350
9460.276850	0.084891	0.320287	3263.965332
9460.277741	0.084899	0.320287	3339.610107
9460.278682	0.084983	0.320287	3419.579102
9460.279595	0.084880	0.320287	3497.074951
9460.280513	0.084847	0.320287	3574.964844
9461.286347	1.165012	0.354737	514.935425
9461.287244	1.653867	0.354737	1998.454346
9461.288237	0.724208	0.354737	2717.592773
9461.289139	0.088315	0.354737	2797.253174
9461.290038	0.084891	0.354737	2873.570557
9461.290976	0.084950	0.354737	2953.253662
9461.291875	0.084910	0.354737	3029.587402
9461.292767	0.084858	0.354737	3105.281006
9461.293652	0.084855	0.354737	3180.377441
9461.294599	0.084924	0.354737	3260.800781
9461.295500	0.084917	0.354737	3337.311035
9461.296403	0.084855	0.354737	3413.934814
9461.297291	0.084888	0.354737	3489.315186
9462.338032	1.193925	0.321322	564.726318
9462.338941	1.656281	0.321322	2070.285156
9462.339877	0.742987	0.321322	2765.721191
9462.340826	0.087638	0.321322	2848.889648
9462.341739	0.084855	0.321322	2926.362061
9462.342629	0.084822	0.321322	3001.853516
9462.343577	0.084961	0.321322	3082.396484
9462.344516	0.084976	0.321322	3162.188477
9462.345431	0.084972	0.321322	3239.937744
9462.346320	0.084932	0.321322	3315.441895
9462.347267	0.084899	0.321322	3395.840820
9462.348196	0.084884	0.321322	3474.697998
9462.349095	0.084946	0.321322	3551.064697
9463.354827	1.163936	0.354403	510.967712
9463.355766	1.653889	0.354403	2063.969727
9463.356716	0.744551	0.354403	2771.292969
9463.357634	0.088044	0.354403	2852.117676
9463.358524	0.084858	0.354403	2927.641602
9463.359470	0.084884	0.354403	3007.941895
9463.360400	0.084855	0.354403	3086.856689
9463.361300	0.084836	0.354403	3163.209473
9463.362212	0.084928	0.354403	3240.663818
9463.363144	0.084862	0.354403	3319.755371
9463.364078	0.084906	0.354403	3399.057617
9463.364975	0.084924	0.354403	3475.234619
9463.365916	0.084880	0.354403	3555.106934
9464.405464	1.175083	0.323896	527.612305
9464.406364	1.655281	0.323896	2017.364990
9464.407266	0.849294	0.323896	2783.428711
9464.408215	0.089366	0.323896	2868.237549
9464.409112	0.084895	0.323896	2944.388428
9464.410000	0.084884	0.323896	3019.765381
9464.410929	0.084921	0.323896	3098.656738
9464.411840	0.084899	0.323896	3175.999512
9464.412746	0.084917	0.323896	3252.934326
9464.413635	0.084921	0.323896	3328.428711
9464.414568	0.084932	0.323896	3407.669922
9464.415495	0.084921	0.323896	3486.391357
9464.416397	0.084913	0.323896	3562.983154
9465.423306	1.163558	0.353182	511.965668
9465.424271	1.656742	0.353182	2110.721680
9465.425189	0.736897	0.353182	2787.193115
9465.426087	0.088436	0.353182	2866.608887
9465.427011	0.084899	0.353182	2945.055176
9465.427923	0.085012	0.353182	3022.586426
9465.428833	0.084836	0.353182	3099.787598
9465.429733	0.084968	0.353182	3176.259033
9465.430672	0.084968	0.353182	3256.044189
9465.431574	0.084968	0.353182	3332.685547
9465.432470	0.084954	0.353182	3408.803955
9465.433357	0.084917	0.353182	3484.125244
9465.434296	0.085005	0.353182	3563.944824
9466.474960	1.162262	0.321133	512.557495
9466.475933	1.655874	0.321133	2123.722900
9466.476868	0.708757	0.321133	2786.411133
9466.477757	0.088026	0.321133	2864.666260
9466.478675	0.084884	0.321133	2942.589844
9466.479619	0.084873	0.321133	3022.709961
9466.480552	0.084957	0.321133	3101.975098
9466.481453	0.084906	0.321133	3178.475342
9466.482370	0.084877	0.321133	3256.307373
9466.483292	0.084884	0.321133	3334.570557
9466.484235	0.084888	0.321133	3414.619629
9466.485132	0.084921	0.321133	3490.793457
9466.486061	0.084910	0.321133	3569.674561
9467.490766	1.174742	0.353770	516.886658
9467.491742	1.657379	0.353770	2134.488770
9467.492657	0.724398	0.353770	2797.312988
9467.493549	0.088308	0.353770	2876.083740
9467.494482	0.084976	0.353770	2955.365967
9467.495393	0.084822	0.353770	3032.638672
9467.496304	0.084858	0.353770	3109.944580
9467.497191	0.084895	0.353770	3185.246582
9467.498138	0.085031	0.353770	3265.770508
9467.499035	0.084902	0.353770	3341.927979
9467.499952	0.084932	0.353770	3419.810303
9467.500850	0.084979	0.353770	3496.121582
9467.501812	0.084921	0.353770	3577.815186
9468.542412	1.162771	0.321701	510.456451
9468.543309	1.653988	0.321701	1994.083618
9468.544292	0.746514	0.321701	2727.906494
9468.545206	0.088469	0.321701	2808.767334
9468.546102	0.084932	0.321701	2884.866211
9468.547036	0.084906	0.321701	2964.168457
9468.547933	0.084902	0.321701	3040.325928
9468.548833	0.084869	0.321701	3116.708496
9468.549722	0.084869	0.321701	3192.157471
9468.550656	0.084943	0.321701	3271.493896
9468.551566	0.084895	0.321701	3348.748291
9468.552465	0.084858	0.321701	3425.035889
9468.553385	0.084899	0.321701	3503.142578
9469.560299	1.171231	0.353226	548.135925
9469.561207	1.655999	0.353226	2051.782715
9469.562144	0.784354	0.353226	2786.722656
9469.563078	0.088213	0.353226	2869.113525
9469.564010	0.084954	0.353226	2948.290283
9469.564900	0.084939	0.353226	3023.885986
9469.565823	0.084855	0.353226	3102.207031
9469.566762	0.085027	0.353226	3182.047363
9469.567679	0.084994	0.353226	3259.986816
9469.568567	0.084983	0.353226	3335.451660
9469.569518	0.084972	0.353226	3416.260010
9469.570454	0.084924	0.353226	3495.749268
9469.571368	0.084884	0.353226	3573.333252
9470.609890	1.198297	0.322970	552.414978
9470.610788	1.655475	0.322970	2039.031250
9470.611739	0.773101	0.322970	2774.250000
9470.612686	0.088466	0.322970	2858.026855
9470.613607	0.084873	0.322970	2936.194824
9470.614500	0.084866	0.322970	3011.979980
9470.615440	0.084932	0.322970	3091.815674
9470.616378	0.084851	0.322970	3171.406006
9470.617274	0.084902	0.322970	3247.478516
9470.618194	0.084884	0.322970	3325.571777
9470.619127	0.084932	0.322970	3404.812988
9470.620040	0.084906	0.322970	3482.332275
9470.620937	0.084946	0.322970	3558.529053
9471.627778	1.225082	0.354012	597.839905
9471.628680	1.656288	0.354012	2091.811523
9471.629612	0.729595	0.354012	2771.793701
9471.630510	0.088429	0.354012	2851.202881
9471.631473	0.084877	0.354012	2932.939209
9471.632376	0.084954	0.354012	3009.652344
9471.633268	0.084928	0.354012	3085.408203
9471.634202	0.084987	0.354012	3164.785645
9471.635121	0.084950	0.354012	3242.854736
9471.636039	0.084877	0.354012	3320.771484
9471.636932	0.084932	0.354012	3396.615479
9471.637885	0.084943	0.354012	3477.565918
9471.638774	0.084946	0.354012	3553.083252
9472.679375	1.177108	0.319590	523.813110
9472.680352	1.657156	0.319590	2142.854248
9472.681271	0.709281	0.319590	2794.683594
9472.682166	0.088037	0.319590	2873.476807
9472.683094	0.084880	0.319590	2952.245850
9472.684001	0.085009	0.319590	3029.348633
9472.684905	0.084833	0.319590	3106.037354
9472.685800	0.084877	0.319590	3182.001953
9472.686758	0.085049	0.319590	3263.478760
9472.687651	0.084877	0.319590	3339.273682
9472.688553	0.084939	0.319590	3415.888672
9472.689440	0.084913	0.319590	3491.206787
9472.690388	0.085016	0.319590	3571.801758
9473.696235	1.192104	0.354922	556.712769
9473.697171	1.656925	0.354922	2107.594727
9473.698070	0.766000	0.354922	2796.228516
9473.698997	0.088762	0.354922	2878.510986
9473.699952	0.084910	0.354922	2959.599609
9473.700865	0.084862	0.354922	3037.078613
9473.701755	0.084818	0.354922	3112.566650
9473.702694	0.084902	0.354922	3192.290039
9473.703626	0.084972	0.354922	3271.483887
9473.704513	0.084994	0.354922	3346.873535
9473.705431	0.084913	0.354922	3424.823975
9473.706379	0.084917	0.354922	3505.325195
9473.707301	0.084910	0.354922	3583.611816
9474.746834	1.173560	0.319344	521.060425
9474.747732	1.654186	0.319344	2006.519287
9474.748716	0.725486	0.319344	2720.397461
9474.749643	0.087664	0.319344	2801.661621
9474.750533	0.084906	0.319344	2877.228027
9474.751466	0.084957	0.319344	2956.493164
9474.752404	0.084939	0.319344	3036.166016
9474.753330	0.084877	0.319344	3114.761963
9474.754219	0.084998	0.319344	3190.324707
9474.755156	0.084862	0.319344	3269.840576
9474.756097	0.084829	0.319344	3349.664795
9474.757011	0.084888	0.319344	3427.252197
9474.757909	0.084836	0.319344	3503.435303
9475.764715	1.182832	0.355820	542.919922
9475.765624	1.655691	0.355820	2047.942993
9475.766523	0.821506	0.355820	2786.477051
9475.767486	0.088586	0.355820	2871.785889
9475.768381	0.084811	0.355820	2947.691650
9475.769276	0.084932	0.355820	3023.705566
9475.770193	0.085009	0.355820	3101.658447
9475.771114	0.084888	0.355820	3179.840088
9475.772011	0.084924	0.355820	3256.017090
9475.772898	0.084928	0.355820	3331.348145
9475.773835	0.084939	0.355820	3410.936035
9475.774756	0.084917	0.355820	3489.144531
9475.775682	0.085020	0.355820	3567.872559
9476.815313	1.170667	0.317769	518.605286
9476.816215	1.654076	0.317769	2010.581787
9476.817190	0.748927	0.317769	2740.785645
9476.818090	0.088748	0.317769	2820.658447
9476.818982	0.084899	0.317769	2896.388184
9476.819920	0.084924	0.317769	2976.047119
9476.820835	0.084884	0.317769	3053.716064
9476.821742	0.084917	0.317769	3130.735840
9476.822628	0.084866	0.317769	3205.926758
9476.823573	0.085027	0.317769	3286.277100
9476.824478	0.084943	0.317769	3363.150146
9476.825375	0.084939	0.317769	3439.340332
9476.826281	0.084913	0.317769	3516.271729
9477.833179	1.182968	0.358242	525.237610
9477.834095	1.655460	0.358242	2041.639160
9477.835008	0.811820	0.358242	2782.831055
9477.835944	0.090161	0.358242	2867.221924
9477.836859	0.084954	0.358242	2944.954590
9477.837767	0.084924	0.358242	3022.065918
9477.838656	0.084932	0.358242	3097.570068
9477.839593	0.084976	0.358242	3177.192139
9477.840497	0.084932	0.358242	3253.970459
9477.841397	0.084891	0.358242	3330.372559
9477.842283	0.084877	0.358242	3405.573242
9477.843222	0.084968	0.358242	3485.358398
9477.844132	0.085020	0.358242	3562.726074
9478.882804	1.178423	0.318558	555.037170
9478.883699	1.655936	0.318558	2037.100098
9478.884656	0.768289	0.318558	2772.352295
9478.885601	0.087579	0.318558	2855.114746
9478.886524	0.084928	0.318558	2933.503174
9478.887417	0.084866	0.318558	3009.288330
9478.888344	0.084851	0.318558	3087.945312
9478.889270	0.084921	0.318558	3166.581787
9478.890190	0.084943	0.318558	3244.729004
9478.891079	0.084840	0.318558	3320.151855
9478.892026	0.084829	0.318558	3400.485107
9478.892966	0.084844	0.318558	3480.238281
9478.893860	0.085005	0.318558	3556.232666
9479.901657	1.182539	0.359043	528.594910
9479.902561	1.655120	0.359043	2024.822998
9479.903489	0.827992	0.359043	2793.199463
9479.904426	0.088971	0.359043	2876.565186
9479.905358	0.084946	0.359043	2955.735107
9479.906248	0.084987	0.359043	3031.373047
9479.907210	0.084910	0.359043	3113.056152
9479.908118	0.084899	0.359043	3190.144043
9479.909028	0.084965	0.359043	3267.461914
9479.909927	0.084961	0.359043	3343.841797
9479.910872	0.084924	0.359043	3424.095215
9479.911792	0.084946	0.359043	3502.245850
9479.912689	0.084961	0.359043	3578.455811
9480.950230	1.175900	0.317209	519.747620
9480.951142	1.655398	0.317209	2029.470703
9480.952043	0.845006	0.317209	2790.821289
9480.952968	0.091428	0.317209	2875.392334
9480.953902	0.084866	0.317209	2954.656982
9480.954797	0.084833	0.317209	3030.582275
9480.955686	0.085012	0.317209	3106.158203
9480.956628	0.084961	0.317209	3186.191406
9480.957522	0.084968	0.317209	3262.153076
9480.958441	0.084965	0.317209	3340.235596
9480.959339	0.084906	0.317209	3416.481201
9480.960284	0.084899	0.317209	3496.710449
9480.961189	0.084968	0.317209	3573.606689
9481.971152	1.164448	0.357355	514.686157
9481.972108	1.654442	0.357355	2096.332764
9481.973035	0.756346	0.357355	2797.465820
9481.973920	0.088923	0.357355	2876.163086
9481.974812	0.084869	0.357355	2951.866699
9481.975747	0.084924	0.357355	3031.270996
9481.976653	0.084928	0.357355	3108.215820
9481.977554	0.084965	0.357355	3184.769043
9481.978444	0.084943	0.357355	3260.367920
9481.979395	0.084946	0.357355	3341.151855
9481.980301	0.084895	0.357355	3418.066650
9481.981193	0.085020	0.357355	3493.904053
9481.982139	0.085031	0.357355	3574.343018
9483.018737	1.210583	0.316150	568.974243
9483.019645	1.656394	0.316150	2072.979980
9483.020550	0.794374	0.316150	2791.888184
9483.021500	0.088608	0.316150	2876.066162
9483.022428	0.084844	0.316150	2954.801270
9483.023328	0.084913	0.316150	3031.223389
9483.024250	0.084891	0.316150	3109.493164
9483.025197	0.084895	0.316150	3189.888672
9483.026121	0.084899	0.316150	3268.334961
9483.027021	0.084921	0.316150	3344.763672
9483.027936	0.084994	0.316150	3422.533203
9483.028871	0.084855	0.316150	3501.872314
9483.029786	0.084884	0.316150	3579.541260
9484.039626	1.159142	0.355965	506.544952
9484.040572	1.655717	0.355965	2072.852783
9484.041531	0.698763	0.355965	2742.966797
9484.042450	0.087393	0.355965	2823.280518
9484.043340	0.084913	0.355965	2898.853271
9484.044257	0.084811	0.355965	2976.624756
9484.045198	0.084946	0.355965	3056.559326
9484.046116	0.084921	0.355965	3134.516602
9484.047002	0.084833	0.355965	3209.678467
9484.047949	0.084866	0.355965	3290.046387
9484.048887	0.084950	0.355965	3369.729492
9484.049777	0.084946	0.355965	3445.331787
9484.050698	0.084869	0.355965	3523.496582
9485.086159	1.162837	0.317761	509.322571
9485.087093	1.655112	0.317761	2055.197510
9485.088027	0.758240	0.317761	2763.393555
9485.088958	0.088026	0.317761	2845.345947
9485.089849	0.084796	0.317761	2920.899414
9485.090807	0.084902	0.317761	3002.235840
9485.091742	0.084829	0.317761	3081.551025
9485.092644	0.084943	0.317761	3158.169189
9485.093558	0.084873	0.317761	3235.743164
9485.094491	0.084902	0.317761	3314.957031
9485.095408	0.084902	0.317761	3392.812500
9485.096296	0.085045	0.317761	3468.332520
9485.097230	0.084950	0.317761	3547.675781
9486.108105	1.161599	0.354596	508.780426
9486.108997	1.653955	0.354596	1984.108398
9486.109986	0.749861	0.354596	2725.720703
9486.110874	0.089070	0.354596	2804.814697
9486.111762	0.084998	0.354596	2880.292480
9486.112713	0.084954	0.354596	2961.083252
9486.113607	0.084928	0.354596	3037.008789
9486.114532	0.084928	0.354596	3115.567139
9486.115434	0.085045	0.354596	3192.277832
9486.116369	0.084968	0.354596	3271.723145
9486.117277	0.084932	0.354596	3348.841064
9486.118165	0.084924	0.354596	3424.253906
9486.119071	0.084998	0.354596	3501.261719
9487.153620	1.166312	0.316625	522.507874
9487.154517	1.655251	0.316625	2007.268311
9487.155469	0.797776	0.316625	2766.750977
9487.156374	0.089498	0.316625	2847.746826
9487.157277	0.084840	0.316625	2924.357422
9487.158168	0.084921	0.316625	3000.021729
9487.159097	0.084954	0.316625	3078.943604
9487.160004	0.084858	0.316625	3155.910156
9487.160907	0.084910	0.316625	3232.583496
9487.161796	0.084921	0.316625	3308.077881
9487.162749	0.084880	0.316625	3388.968994
9487.163657	0.084862	0.316625	3466.023682
9487.164548	0.084968	0.316625	3541.730469
9488.176582	1.159318	0.354620	505.462494
9488.177532	1.655607	0.354620	2078.288818
9488.178485	0.715419	0.354620	2760.082764
9488.179404	0.087422	0.354620	2840.423340
9488.180305	0.084902	0.354620	2916.920410
9488.181223	0.084910	0.354620	2994.867432
9488.182157	0.084957	0.354620	3074.217529
9488.183070	0.084917	0.354620	3151.746826
9488.183958	0.084928	0.354620	3227.162842
9488.184911	0.084932	0.354620	3308.102783
9488.185844	0.084836	0.354620	3387.255127
9488.186743	0.084950	0.354620	3463.625244
9488.187672	0.084888	0.354620	3542.485840
9489.221085	1.168923	0.318655	521.339844
9489.221989	1.654882	0.318655	2017.352783
9489.222886	0.855945	0.318655	2785.135254
9489.223831	0.089839	0.318655	2870.032959
9489.224777	0.084877	0.318655	2950.326416
9489.225676	0.084921	0.318655	3026.670166
9489.226591	0.084855	0.318655	3104.312256
9489.227517	0.084873	0.318655	3182.904785
9489.228450	0.084924	0.318655	3262.139160
9489.229346	0.084965	0.318655	3338.267334
9489.230275	0.084866	0.318655	3417.107666
9489.231215	0.084990	0.318655	3496.998535
9489.232134	0.084943	0.318655	3575.060791
9490.246108	1.178566	0.353814	526.818848
9490.247016	1.655035	0.353814	2029.590942
9490.247948	0.795795	0.353814	2771.271484
9490.248846	0.089725	0.353814	2851.844727
9490.249803	0.084855	0.353814	2933.050781
9490.250717	0.084822	0.353814	3010.577881
9490.251611	0.084910	0.353814	3086.487061
9490.252529	0.084910	0.353814	3164.434082
9490.253454	0.084869	0.353814	3242.938232
9490.254381	0.084917	0.353814	3321.656250
9490.255268	0.084902	0.353814	3396.964600
9490.256199	0.084928	0.353814	3476.032471
9490.257110	0.084840	0.353814	3553.321777
9491.288583	1.245304	0.320613	623.897217
9491.289515	1.657350	0.320613	2168.547363
9491.290424	0.698137	0.320613	2803.154053
9491.291315	0.088085	0.320613	2881.637451
9491.292287	0.084946	0.320613	2964.205322
9491.293187	0.084891	0.320613	3040.607422
9491.294074	0.084921	0.320613	3115.932129
9491.295013	0.084957	0.320613	3195.707031
9491.295922	0.084965	0.320613	3272.939941
9491.296820	0.084913	0.320613	3349.192139
9491.297704	0.084818	0.320613	3424.171387
9491.298628	0.084961	0.320613	3502.675293
9491.299534	0.084921	0.320613	3579.613281
9492.314613	1.207965	0.352654	581.031189
9492.315536	1.657028	0.352654	2110.467773
9492.316456	0.737761	0.352654	2789.208008
9492.317343	0.088905	0.352654	2868.066650
9492.318288	0.084968	0.352654	2948.361572
9492.319198	0.084976	0.352654	3025.689453
9492.320095	0.084954	0.352654	3101.892822
9492.321015	0.084943	0.352654	3180.040039
9492.321933	0.084935	0.352654	3258.010742
9492.322843	0.084932	0.352654	3335.298584
9492.323745	0.084851	0.352654	3411.834229
9492.324676	0.084950	0.352654	3490.922607
9492.325579	0.084888	0.352654	3567.576172
9493.358050	1.189742	0.321173	554.419983
9493.358946	1.655933	0.321173	2038.135498
9493.359884	0.782014	0.321173	2771.664795
9493.360835	0.088579	0.321173	2855.903564
9493.361752	0.084954	0.321173	2933.806152
9493.362642	0.084943	0.321173	3009.405029
9493.363591	0.084928	0.321173	3090.001709
9493.364521	0.084756	0.321173	3168.824707
9493.365415	0.084910	0.321173	3244.733887
9493.366336	0.084895	0.321173	3322.922119
9493.367267	0.084891	0.321173	3401.956055
9493.368183	0.084866	0.321173	3479.693115
9493.369073	0.084891	0.321173	3555.246338
9494.384095	1.172022	0.350700	525.065613
9494.384991	1.654607	0.350700	2007.593506
9494.385969	0.755325	0.350700	2746.301025
9494.386867	0.088674	0.350700	2825.930664
9494.387783	0.084917	0.350700	2903.714600
9494.388684	0.085001	0.350700	2980.300781
9494.389632	0.084932	0.350700	3060.815918
9494.390549	0.084906	0.350700	3138.674805
9494.391435	0.084983	0.350700	3213.969727
9494.392390	0.084880	0.350700	3295.030518
9494.393292	0.085005	0.350700	3371.704834
9494.394215	0.084943	0.350700	3450.106934
9494.395108	0.084935	0.350700	3525.954102
9495.425503	1.186348	0.322285	539.788147
9495.426405	1.655039	0.322285	2032.633301
9495.427342	0.802365	0.322285	2784.448730
9495.428267	0.088392	0.322285	2866.211670
9495.429178	0.084873	0.322285	2943.531006
9495.430079	0.084884	0.322285	3020.011475
9495.431014	0.085027	0.322285	3099.511475
9495.431922	0.085027	0.322285	3176.715820
9495.432828	0.084917	0.322285	3253.650635
9495.433718	0.084869	0.322285	3329.184326
9495.434669	0.085038	0.322285	3410.055420
9495.435575	0.084968	0.322285	3487.036621
9495.436471	0.084932	0.322285	3563.135254
9496.451562	1.198854	0.349903	561.063599
9496.452466	1.656127	0.349903	2058.202148
9496.453405	0.754493	0.349903	2766.671387
9496.454352	0.087806	0.349903	2849.823975
9496.455268	0.084895	0.349903	2927.587891
9496.456156	0.084844	0.349903	3002.929199
9496.457099	0.084847	0.349903	3082.940430
9496.458026	0.084818	0.349903	3161.566895
9496.458922	0.084950	0.349903	3237.682129
9496.459851	0.084899	0.349903	3316.552979
9496.460794	0.084917	0.349903	3396.629639
9496.461716	0.084921	0.349903	3474.926514
9496.462619	0.084917	0.349903	3551.606445
9497.493977	1.167799	0.322861	522.006165
9497.494877	1.655127	0.322861	2011.620361
9497.495811	0.810663	0.322861	2768.779297
9497.496755	0.089052	0.322861	2852.843994
9497.497668	0.084862	0.322861	2930.322998
9497.498557	0.084924	0.322861	3005.820801
9497.499505	0.084855	0.322861	3086.263184
9497.500442	0.084935	0.322861	3165.847656
9497.501344	0.084902	0.322861	3242.429687
9497.502254	0.084869	0.322861	3319.660889
9497.503191	0.084833	0.322861	3399.149170
9497.504124	0.084921	0.322861	3478.380127
9497.505023	0.084917	0.322861	3554.720459
9498.520015	1.160229	0.347365	510.500946
9498.520916	1.654325	0.347365	2001.047852
9498.521902	0.734476	0.347365	2725.241455
9498.522806	0.088499	0.347365	2805.244141
9498.523698	0.084880	0.347365	2880.957520
9498.524626	0.084928	0.347365	2959.770752
9498.525545	0.084899	0.347365	3037.792725
9498.526440	0.084910	0.347365	3113.786865
9498.527328	0.084946	0.347365	3189.219238
9498.528269	0.085009	0.347365	3269.212402
9498.529183	0.084932	0.347365	3346.839844
9498.530105	0.084921	0.347365	3425.136719
9498.530996	0.084913	0.347365	3500.794434
9499.561423	1.168634	0.325286	515.367615
9499.562330	1.654644	0.325286	2016.129395
9499.563231	0.858325	0.325286	2789.480469
9499.564184	0.089414	0.325286	2874.692139
9499.565096	0.084818	0.325286	2952.046387
9499.565988	0.084877	0.325286	3027.756348
9499.566908	0.084943	0.325286	3105.903564
9499.567827	0.084921	0.325286	3183.945557
9499.568733	0.084873	0.325286	3260.840576
9499.569631	0.084939	0.325286	3337.115723
9499.570569	0.084932	0.325286	3416.781494
9499.571465	0.084888	0.325286	3492.840820
9499.572364	0.084792	0.325286	3569.069336
9500.588492	1.165320	0.347574	512.740723
9500.589442	1.654805	0.347574	2084.805176
9500.590404	0.704722	0.347574	2762.747559
9500.591332	0.087191	0.347574	2843.660889
9500.592220	0.084833	0.347574	2918.992432
9500.593156	0.084785	0.347574	2998.351318
9500.594093	0.084822	0.347574	3077.829346
9500.594987	0.084847	0.347574	3153.682861
9500.595907	0.084884	0.347574	3231.776123
9500.596842	0.084822	0.347574	3311.084473
9500.597755	0.084818	0.347574	3388.523437
9500.598644	0.084723	0.347574	3463.842041
9500.599592	0.084840	0.347574	3544.270508
9501.630925	1.157889	0.324126	509.471313
9501.631923	1.657233	0.324126	2163.389648
9501.632831	0.685045	0.324126	2785.410645
9501.633752	0.087187	0.324126	2865.710449
9501.634653	0.084917	0.324126	2942.220703
9501.635604	0.084880	0.324126	3022.941895
9501.636522	0.084932	0.324126	3100.909180
9501.637412	0.084932	0.324126	3176.498291
9501.638343	0.084910	0.324126	3255.549316
9501.639261	0.084910	0.324126	3333.496338
9501.640177	0.084946	0.324126	3411.307129
9501.641066	0.084851	0.324126	3486.739746
9501.642015	0.084763	0.324126	3567.179932
9502.656973	1.173072	0.346237	516.151855
9502.657947	1.657233	0.346237	2130.296387
9502.658864	0.724160	0.346237	2794.351318
9502.659751	0.088447	0.346237	2872.803955
9502.660689	0.085016	0.346237	2952.548828
9502.661592	0.084913	0.346237	3029.225586
9502.662488	0.084924	0.346237	3105.317871
9502.663377	0.085049	0.346237	3180.926270
9502.664315	0.085078	0.346237	3260.729492
9502.665211	0.084899	0.346237	3336.798828
9502.666101	0.084961	0.346237	3412.414062
9502.667010	0.084939	0.346237	3489.623535
9502.667949	0.084888	0.346237	3569.333008
9503.698394	1.188680	0.325350	539.660889
9503.699295	1.655435	0.325350	2031.207520
9503.700245	0.774954	0.325350	2767.413574
9503.701145	0.089264	0.325350	2847.750977
9503.702051	0.084906	0.325350	2924.675781
9503.702941	0.084979	0.325350	3000.307373
9503.703872	0.084976	0.325350	3079.419678
9503.704772	0.084924	0.325350	3155.851562
9503.705662	0.084880	0.325350	3231.395020
9503.706598	0.084976	0.325350	3310.932129
9503.707508	0.085009	0.325350	3388.289795
9503.708404	0.084946	0.325350	3464.401611
9503.709291	0.084950	0.325350	3539.752197
9504.725496	1.184476	0.346080	576.839966
9504.726447	1.657163	0.346080	2152.802246
9504.727372	0.677355	0.346080	2779.355469
9504.728261	0.087748	0.346080	2857.363281
9504.729213	0.084745	0.346080	2938.040527
9504.730138	0.084851	0.346080	3016.527832
9504.731033	0.084910	0.346080	3092.521973
9504.731952	0.084880	0.346080	3170.527100
9504.732901	0.084880	0.346080	3251.078613
9504.733842	0.084792	0.346080	3330.868408
9504.734740	0.084954	0.346080	3407.156738
9504.735655	0.084789	0.346080	3484.738525
9504.736597	0.084858	0.346080	3564.675049
9505.767922	1.173409	0.322973	562.063110
9505.768863	1.656614	0.322973	2120.936768
9505.769797	0.690037	0.322973	2765.431152
9505.770683	0.088052	0.322973	2843.445068
9505.771612	0.084895	0.322973	2922.312500
9505.772547	0.084910	0.322973	3001.703125
9505.773458	0.084880	0.322973	3079.029053
9505.774353	0.084847	0.322973	3154.967529
9505.775304	0.084902	0.322973	3235.709717
9505.776243	0.084939	0.322973	3315.467285
9505.777139	0.084851	0.322973	3391.493896
9505.778068	0.084774	0.322973	3470.249023
9505.779002	0.084800	0.322973	3549.452148
9506.793998	1.210862	0.346495	613.906921
9506.794910	1.656570	0.346495	2124.698730
9506.795831	0.707164	0.346495	2775.997070
9506.796727	0.088103	0.346495	2854.937500
9506.797663	0.084888	0.346495	2934.392334
9506.798571	0.084847	0.346495	3011.433838
9506.799459	0.084906	0.346495	3086.830322
9506.800375	0.084855	0.346495	3164.557373
9506.801300	0.084716	0.346495	3242.919189
9506.802195	0.084851	0.346495	3318.860840
9506.803083	0.084891	0.346495	3394.244385
9506.804025	0.084902	0.346495	3474.222412
9506.804921	0.084862	0.346495	3550.258789
9507.835332	1.155059	0.323280	500.140381
9507.836288	1.654124	0.323280	2081.482422
9507.837222	0.742075	0.323280	2774.580566
9507.838117	0.088663	0.323280	2853.934326
9507.839009	0.084866	0.323280	2929.634521
9507.839956	0.084968	0.323280	3010.099365
9507.840868	0.084895	0.323280	3087.523682
9507.841770	0.084902	0.323280	3164.105713
9507.842663	0.084950	0.323280	3239.966064
9507.843602	0.084943	0.323280	3319.727295
9507.844514	0.084968	0.323280	3397.218262
9507.845404	0.084818	0.323280	3472.706299
9507.846336	0.084954	0.323280	3551.883057
9508.862442	1.202501	0.345371	569.985535
9508.863376	1.656826	0.345371	2117.461182
9508.864276	0.760536	0.345371	2801.943359
9508.865204	0.088521	0.345371	2884.090332
9508.866138	0.084869	0.345371	2963.358398
9508.867052	0.084965	0.345371	3041.016113
9508.867942	0.084781	0.345371	3116.471680
9508.868878	0.084862	0.345371	3195.902588
9508.869811	0.084855	0.345371	3275.072021
9508.870720	0.084917	0.345371	3352.261475
9508.871615	0.084877	0.345371	3428.226074
9508.872554	0.084858	0.345371	3507.908203
9508.873487	0.084873	0.345371	3587.094727
9509.904851	1.172259	0.321817	521.655457
9509.905753	1.654808	0.321817	2014.292480
9509.906694	0.794293	0.321817	2761.722412
9509.907596	0.089817	0.321817	2842.737305
9509.908536	0.084888	0.321817	2922.531738
9509.909466	0.084928	0.321817	3001.514648
9509.910361	0.084891	0.321817	3077.492432
9509.911292	0.084866	0.321817	3156.502441
9509.912235	0.084899	0.321817	3236.562012
9509.913141	0.084913	0.321817	3313.493408
9509.914036	0.084840	0.321817	3389.425293
9509.914972	0.084847	0.321817	3468.842529
9509.915912	0.084825	0.321817	3548.578369
9510.930920	1.198678	0.347308	551.391907
9510.931822	1.655526	0.347308	2044.676514
9510.932717	0.824985	0.347308	2783.038330
9510.933670	0.088997	0.347308	2867.852051
9510.934571	0.084913	0.347308	2944.358887
9510.935461	0.084906	0.347308	3019.925293
9510.936399	0.084979	0.347308	3099.635742
9510.937312	0.084990	0.347308	3177.231934
9510.938219	0.084932	0.347308	3254.264893
9510.939113	0.084906	0.347308	3330.170898
9510.940062	0.085045	0.347308	3410.878662
9510.940968	0.084943	0.347308	3487.836670
9510.941864	0.085001	0.347308	3563.997803
9511.972343	1.192954	0.322978	561.881409
9511.973275	1.656716	0.322978	2105.941162
9511.974171	0.771504	0.322978	2797.208496
9511.975108	0.089143	0.322978	2880.735596
9511.976054	0.084811	0.322978	2960.966553
9511.976967	0.084928	0.322978	3038.505859
9511.977865	0.084781	0.322978	3114.639648
9511.978800	0.084800	0.322978	3193.927490
9511.979743	0.084961	0.322978	3274.045654
9511.980665	0.084954	0.322978	3352.372803
9511.981562	0.084943	0.322978	3428.566406
9511.982515	0.084983	0.322978	3509.555176
9511.983411	0.084972	0.322978	3585.689941
9512.998359	1.169967	0.349222	520.635315
9512.999256	1.654717	0.349222	2004.916260
9513.000156	0.875771	0.349222	2793.110596
9513.001081	0.090648	0.349222	2876.960205
9513.002023	0.084796	0.349222	2956.838135
9513.002944	0.084906	0.349222	3035.036621
9513.003833	0.084869	0.349222	3110.485596
9513.004784	0.084895	0.349222	3191.220703
9513.005720	0.084855	0.349222	3270.644775
9513.006619	0.084833	0.349222	3346.909424
9513.007552	0.084983	0.349222	3426.198486
9513.008493	0.084946	0.349222	3506.133057
9513.009414	0.084884	0.349222	3584.311279
9514.040803	1.171604	0.320299	533.079773
9514.041703	1.655490	0.320299	2023.020264
9514.042605	0.839689	0.320299	2780.419434
9514.043559	0.088568	0.320299	2864.913330
9514.044479	0.084829	0.320299	2942.956055
9514.045401	0.084844	0.320299	3021.181885
9514.046298	0.084866	0.320299	3097.306396
9514.047254	0.084891	0.320299	3178.462646
9514.048155	0.084855	0.320299	3254.916748
9514.049047	0.084888	0.320299	3330.636475
9514.049979	0.084935	0.320299	3409.796143
9514.050880	0.084913	0.320299	3486.302979
9514.051798	0.084902	0.320299	3564.243408
9515.066835	1.175079	0.351136	524.085388
9515.067736	1.654955	0.351136	2015.199707
9515.068666	0.839619	0.351136	2796.045410
9515.069595	0.089249	0.351136	2878.958008
9515.070508	0.084829	0.351136	2956.406982
9515.071404	0.084847	0.351136	3032.430176
9515.072346	0.084939	0.351136	3112.442627
9515.073243	0.084858	0.351136	3188.560547
9515.074140	0.084891	0.351136	3264.708008
9515.075031	0.084877	0.351136	3340.333252
9515.075961	0.084998	0.351136	3419.380859
9515.076872	0.084998	0.351136	3496.813721
9515.077779	0.084873	0.351136	3573.793457
9516.108272	1.208390	0.320830	569.151611
9516.109186	1.656288	0.320830	2082.998535
9516.110083	0.800720	0.320830	2801.244629
9516.111013	0.088942	0.320830	2883.960449
9516.111953	0.084862	0.320830	2963.730713
9516.112878	0.084855	0.320830	3042.221436
9516.113769	0.084935	0.320830	3117.898682
9516.114699	0.084928	0.320830	3196.881592
9516.115637	0.084906	0.320830	3276.523437
9516.116545	0.084950	0.320830	3353.657959
9516.117441	0.084891	0.320830	3429.720703
9516.118379	0.084972	0.320830	3509.424316
9516.119318	0.084880	0.320830	3589.126953
9517.135305	1.158186	0.349738	506.127258
9517.136265	1.654468	0.349738	2094.416260
9517.137186	0.759137	0.349738	2793.581543
9517.138108	0.088477	0.349738	2875.156982
9517.138999	0.084932	0.349738	2950.831055
9517.139937	0.084943	0.349738	3030.507324
9517.140846	0.084891	0.349738	3107.673584
9517.141765	0.084946	0.349738	3185.739258
9517.142662	0.084899	0.349738	3261.893311
9517.143622	0.084851	0.349738	3343.350342
9517.144520	0.084913	0.349738	3419.602539
9517.145445	0.084873	0.349738	3498.110107
9517.146333	0.084858	0.349738	3573.464355
9518.177740	1.170692	0.319445	517.445923
9518.178718	1.655204	0.319445	2136.235352
9518.179634	0.717539	0.319445	2793.501221
9518.180530	0.088264	0.319445	2872.585937
9518.181417	0.084840	0.319445	2947.839111
9518.182363	0.085042	0.319445	3028.288330
9518.183280	0.084873	0.319445	3106.116943
9518.184180	0.084910	0.319445	3182.535645
9518.185111	0.084957	0.319445	3261.630859
9518.186026	0.084935	0.319445	3339.346680
9518.186929	0.084869	0.319445	3415.983643
9518.187828	0.084965	0.319445	3492.366699
9518.188768	0.085001	0.319445	3572.267822
9519.203834	1.180422	0.351264	573.685242
9519.204755	1.657072	0.351264	2099.848145
9519.205686	0.709856	0.351264	2760.724121
9519.206582	0.088110	0.351264	2839.670898
9519.207526	0.084829	0.351264	2919.749512
9519.208463	0.084833	0.351264	2999.237793
9519.209365	0.084880	0.351264	3075.799805
9519.210288	0.084873	0.351264	3154.137695
9519.211214	0.084873	0.351264	3232.730225
9519.212149	0.084957	0.351264	3312.165283
9519.213041	0.084888	0.351264	3387.885010
9519.213966	0.084968	0.351264	3466.480713
9519.214908	0.084880	0.351264	3546.437988
9520.246243	1.194489	0.317761	541.103271
9520.247158	1.655588	0.317761	2055.966797
9520.248100	0.752117	0.317761	2764.460693
9520.248992	0.089037	0.317761	2843.881592
9520.249947	0.084877	0.317761	2924.938965
9520.250849	0.084913	0.317761	3001.530762
9520.251736	0.084928	0.317761	3076.861816
9520.252664	0.084910	0.317761	3155.657959
9520.253589	0.084877	0.317761	3234.168945
9520.254504	0.084895	0.317761	3311.847900
9520.255395	0.084961	0.317761	3387.548096
9520.256342	0.084994	0.317761	3468.037354
9520.257237	0.084899	0.317761	3544.021729
9521.271239	1.172464	0.353665	514.711914
9521.272212	1.657401	0.353665	2127.363281
9521.273144	0.704095	0.353665	2783.580322
9521.274039	0.088074	0.353665	2862.406250
9521.274974	0.084917	0.353665	2941.803711
9521.275874	0.084994	0.353665	3018.298096
9521.276777	0.084946	0.353665	3095.004639
9521.277665	0.084899	0.353665	3170.394775
9521.278612	0.084998	0.353665	3250.887451
9521.279512	0.085005	0.353665	3327.391846
9521.280419	0.084965	0.353665	3404.454834
9521.281313	0.084983	0.353665	3480.429443
9521.282264	0.084906	0.353665	3561.175049
9522.315748	1.196265	0.316311	553.870544
9522.316655	1.656054	0.316311	2055.911133
9522.317591	0.761521	0.316311	2768.694824
9522.318545	0.088015	0.316311	2852.661377
9522.319462	0.084807	0.316311	2930.429443
9522.320350	0.084858	0.316311	3005.783691
9522.321290	0.084888	0.316311	3085.578125
9522.322224	0.084880	0.316311	3164.856445
9522.323114	0.084877	0.316311	3240.396729
9522.324035	0.084792	0.316311	3318.490723
9522.324981	0.084814	0.316311	3398.725098
9522.325897	0.084833	0.316311	3476.431885
9522.326791	0.084954	0.316311	3552.380371
9523.338698	1.156721	0.354423	504.330444
9523.339636	1.654138	0.354423	2055.912109
9523.340586	0.758430	0.354423	2776.420654
9523.341506	0.088202	0.354423	2857.566406
9523.342392	0.084862	0.354423	2932.754150
9523.343330	0.084814	0.354423	3012.310059
9523.344260	0.084950	0.354423	3091.313477
9523.345174	0.084895	0.354423	3168.907471
9523.346065	0.084928	0.354423	3244.578369
9523.347017	0.084891	0.354423	3325.395020
9523.347953	0.084913	0.354423	3404.874023
9523.348849	0.084844	0.354423	3480.894043
9523.349777	0.084913	0.354423	3559.693604
9524.385248	1.172589	0.314276	539.390991
9524.386198	1.656753	0.314276	2113.306152
9524.387104	0.750388	0.314276	2793.157715
9524.387992	0.089136	0.314276	2872.310303
9524.388926	0.084924	0.314276	2951.629639
9524.389834	0.085016	0.314276	3028.823975
9524.390752	0.084884	0.314276	3106.747559
9524.391653	0.084976	0.314276	3183.310547
9524.392606	0.084939	0.314276	3264.257324
9524.393508	0.085009	0.314276	3340.935059
9524.394399	0.084957	0.314276	3416.632080
9524.395332	0.084976	0.314276	3495.914307
9524.396248	0.084895	0.314276	3573.678223
9525.405148	1.181774	0.355349	527.071045
9525.406070	1.655805	0.355349	2053.722656
9525.406984	0.796282	0.355349	2781.524170
9525.407926	0.089557	0.355349	2865.886719
9525.408825	0.084943	0.355349	2942.250244
9525.409730	0.084825	0.355349	3019.017334
9525.410619	0.084869	0.355349	3094.466309
9525.411561	0.084983	0.355349	3174.520264
9525.412459	0.084884	0.355349	3250.746094
9525.413358	0.084928	0.355349	3327.096436
9525.414245	0.084888	0.355349	3402.391846
9525.415195	0.085001	0.355349	3483.143066
9525.416106	0.084957	0.355349	3560.539062
9526.453761	1.190914	0.313302	576.402588
9526.454687	1.657229	0.313302	2110.996582
9526.455624	0.692604	0.313302	2759.966309
9526.456520	0.087850	0.313302	2838.680176
9526.457455	0.084840	0.313302	2918.005615
9526.458382	0.084888	0.313302	2996.696533
9526.459283	0.084884	0.313302	3073.177002
9526.460198	0.084895	0.313302	3150.855957
9526.461140	0.084902	0.313302	3230.833984
9526.462057	0.084866	0.313302	3308.655762
9526.462949	0.084866	0.313302	3384.355957
9526.463895	0.084814	0.313302	3464.590332
9526.464830	0.084902	0.313302	3543.974121
9527.473622	1.163793	0.353303	520.215332
9527.474523	1.654929	0.353303	2011.306519
9527.475474	0.816035	0.353303	2787.355957
9527.476395	0.088824	0.353303	2869.163330
9527.477314	0.084873	0.353303	2947.161621
9527.478204	0.084998	0.353303	3022.809570
9527.479154	0.084855	0.353303	3103.421631
9527.480055	0.084899	0.353303	3179.915283
9527.480976	0.084943	0.353303	3258.147461
9527.481870	0.084924	0.353303	3334.069824
9527.482818	0.084913	0.353303	3414.567627
9527.483734	0.084895	0.353303	3492.331543
9527.484632	0.084921	0.353303	3568.590332
9528.522198	1.176233	0.312899	529.304749
9528.523105	1.655292	0.312899	2030.654297
9528.524007	0.845017	0.312899	2792.859863
9528.524973	0.088542	0.312899	2878.391846
9528.525882	0.084796	0.312899	2955.471436
9528.526779	0.084792	0.312899	3031.530273
9528.527666	0.084968	0.312899	3106.897217
9528.528610	0.084950	0.312899	3187.089844
9528.529504	0.084888	0.312899	3262.979492
9528.530397	0.084858	0.312899	3338.758057
9528.531337	0.084972	0.312899	3418.631592
9528.532246	0.084913	0.312899	3495.817871
9528.533150	0.084888	0.312899	3572.556396
9529.542093	1.164939	0.352698	517.232910
9529.542987	1.654230	0.352698	1996.114258
9529.543963	0.766117	0.352698	2743.844238
9529.544916	0.088096	0.352698	2827.799561
9529.545806	0.084840	0.352698	2903.307129
9529.546736	0.084855	0.352698	2982.221924
9529.547665	0.084811	0.352698	3061.011230
9529.548577	0.084891	0.352698	3138.432129
9529.549476	0.084858	0.352698	3214.719727
9529.550424	0.084855	0.352698	3295.162109
9529.551359	0.084891	0.352698	3374.535645
9529.552256	0.084899	0.352698	3450.689697
9529.553172	0.084906	0.352698	3528.463623
9530.591694	1.165111	0.312077	514.979065
9530.592673	1.656310	0.312077	2136.506348
9530.593608	0.703491	0.312077	2794.270508
9530.594498	0.088041	0.312077	2872.626709
9530.595422	0.084866	0.312077	2951.042725
9530.596356	0.084888	0.312077	3030.327881
9530.597276	0.084884	0.312077	3108.421143
9530.598170	0.084935	0.312077	3184.353271
9530.599091	0.084844	0.312077	3262.494385
9530.600040	0.084910	0.312077	3343.073730
9530.600958	0.084957	0.312077	3421.064453
9530.601844	0.084866	0.312077	3496.255371
9530.602803	0.084954	0.312077	3577.725830
9531.609552	1.159039	0.352026	507.659210
9531.610446	1.653776	0.352026	1986.134521
9531.611418	0.769702	0.352026	2734.284912
9531.612326	0.088868	0.352026	2814.977539
9531.613216	0.084924	0.352026	2890.560059
9531.614140	0.084921	0.352026	2969.026855
9531.615066	0.085034	0.352026	3047.768555
9531.615973	0.084917	0.352026	3124.788330
9531.616862	0.084888	0.352026	3200.253418
9531.617804	0.084990	0.352026	3280.314209
9531.618715	0.084968	0.352026	3357.720215
9531.619610	0.084961	0.352026	3433.760254
9531.620505	0.084902	0.352026	3509.747803
9532.660170	1.173402	0.314135	515.123535
9532.661153	1.657031	0.314135	2143.985352
9532.662084	0.695680	0.314135	2791.663330
9532.662976	0.087773	0.314135	2869.957275
9532.663908	0.084965	0.314135	2949.144287
9532.664811	0.084979	0.314135	3025.880615
9532.665711	0.084811	0.314135	3102.210449
9532.666600	0.084902	0.314135	3177.688721
9532.667548	0.085020	0.314135	3258.287109
9532.668443	0.084873	0.314135	3334.248535
9532.669338	0.084939	0.314135	3410.268799
9532.670258	0.084880	0.314135	3488.358643
9532.671179	0.084932	0.314135	3566.580566
9533.677028	1.196422	0.352823	552.747009
9533.677936	1.655782	0.352823	2056.197510
9533.678863	0.799135	0.352823	2796.995117
9533.679807	0.087990	0.352823	2880.057129
9533.680742	0.084866	0.352823	2959.406494
9533.681641	0.084880	0.352823	3035.713867
9533.682565	0.084829	0.352823	3114.095947
9533.683504	0.084983	0.352823	3193.895020
9533.684428	0.084825	0.352823	3272.273682
9533.685316	0.084939	0.352823	3347.699463
9533.686250	0.084935	0.352823	3427.029053
9533.687196	0.084814	0.352823	3507.263428
9533.688096	0.084891	0.352823	3583.665527
9534.728669	1.187040	0.315062	531.793823
9534.729576	1.655914	0.315062	2033.708130
9534.730478	0.839989	0.315062	2791.378174
9534.731397	0.091245	0.315062	2875.232422
9534.732339	0.084833	0.315062	2955.144775
9534.733258	0.085049	0.315062	3033.304687
9534.734147	0.084961	0.315062	3108.834961
9534.735095	0.084910	0.315062	3189.329346
9534.735996	0.084792	0.315062	3265.727295
9534.736909	0.084906	0.315062	3343.246582
9534.737805	0.084965	0.315062	3419.374756
9534.738742	0.084946	0.315062	3498.969482
9534.739671	0.084833	0.315062	3577.779053
9535.745500	1.178188	0.349641	532.541199
9535.746399	1.655233	0.349641	2020.595703
9535.747364	0.762426	0.349641	2756.336426
9535.748277	0.088612	0.349641	2837.239258
9535.749168	0.084771	0.349641	2912.769775
9535.750054	0.084814	0.349641	2987.915283
9535.750998	0.084917	0.349641	3068.076904
9535.751906	0.084825	0.349641	3145.098389
9535.752801	0.084855	0.349641	3221.043457
9535.753704	0.084866	0.349641	3297.677246
9535.754644	0.084884	0.349641	3377.468262
9535.755544	0.084811	0.349641	3453.797852
9535.756432	0.084811	0.349641	3529.109863
9536.797139	1.169432	0.314006	513.380798
9536.798056	1.655270	0.314006	2031.263184
9536.798956	0.842754	0.314006	2789.741699
9536.799883	0.091252	0.314006	2874.332764
9536.800792	0.084961	0.314006	2951.562256
9536.801691	0.084774	0.314006	3027.774170
9536.802588	0.084833	0.314006	3103.869141
9536.803511	0.084961	0.314006	3182.288086
9536.804416	0.084866	0.314006	3259.091553
9536.805319	0.084902	0.314006	3335.758301
9536.806206	0.084858	0.314006	3411.027588
9536.807152	0.084965	0.314006	3491.404053
9536.808057	0.084950	0.314006	3568.283691
9537.813973	1.166001	0.349730	515.372437
9537.814867	1.654006	0.349730	1994.054077
9537.815853	0.736457	0.349730	2720.201172
9537.816779	0.087858	0.349730	2801.557373
9537.817676	0.084880	0.349730	2877.695068
9537.818594	0.084877	0.349730	2955.611816
9537.819536	0.084917	0.349730	3035.603516
9537.820456	0.084884	0.349730	3113.696777
9537.821347	0.084891	0.349730	3189.334961
9537.822291	0.084935	0.349730	3269.513916
9537.823226	0.084961	0.349730	3348.952393
9537.824128	0.084943	0.349730	3425.570557
9537.825058	0.084866	0.349730	3504.495605
9538.865656	1.199290	0.313378	581.655457
9538.866556	1.656618	0.313378	2072.611328
9538.867533	0.703696	0.313378	2760.122559
9538.868428	0.087473	0.313378	2838.411133
9538.869348	0.084950	0.313378	2916.565186
9538.870244	0.084939	0.313378	2992.670410
9538.871186	0.084957	0.313378	3072.700195
9538.872088	0.084928	0.313378	3149.305176
9538.872981	0.084884	0.313378	3225.106689
9538.873907	0.085012	0.313378	3303.827881
9538.874821	0.084921	0.313378	3381.445312
9538.875714	0.084869	0.313378	3457.233643
9538.876603	0.084888	0.313378	3532.698730
9539.882441	1.158028	0.346515	507.216461
9539.883405	1.656984	0.346515	2104.548584
9539.884329	0.733217	0.346515	2782.040771
9539.885234	0.088264	0.346515	2861.919922
9539.886126	0.084939	0.346515	2937.685547
9539.887057	0.085052	0.346515	3016.869385
9539.887960	0.084924	0.346515	3093.556152
9539.888851	0.084943	0.346515	3169.239990
9539.889784	0.084961	0.346515	3248.508545
9539.890688	0.084935	0.346515	3325.290039
9539.891596	0.084880	0.346515	3402.361328
9539.892487	0.084891	0.346515	3477.999512
9539.893439	0.085056	0.346515	3558.972900
9540.933083	1.168074	0.314917	520.960876
9540.933990	1.655138	0.314917	2022.171143
9540.934929	0.815391	0.314917	2787.822998
9540.935867	0.088370	0.314917	2870.714355
9540.936797	0.084913	0.314917	2949.683838
9540.937691	0.084899	0.314917	3025.583252
9540.938617	0.084877	0.314917	3104.179199
9540.939555	0.084877	0.314917	3183.793457
9540.940471	0.084829	0.314917	3261.496826
9540.941359	0.084825	0.314917	3336.821777
9540.942294	0.084954	0.314917	3416.253418
9540.943241	0.084917	0.314917	3496.669922
9540.944142	0.084954	0.314917	3573.213135
9541.950950	1.192830	0.346962	547.508789
9541.951852	1.655698	0.346962	2040.948608
9541.952748	0.840425	0.346962	2793.969238
9541.953704	0.091018	0.346962	2880.982422
9541.954605	0.084778	0.346962	2957.367187
9541.955527	0.084961	0.346962	3035.701172
9541.956428	0.084825	0.346962	3112.128906
9541.957363	0.084825	0.346962	3191.440674
9541.958272	0.084924	0.346962	3268.636963
9541.959192	0.084891	0.346962	3346.737061
9541.960081	0.084924	0.346962	3422.234863
9541.961032	0.084800	0.346962	3502.879395
9541.961930	0.084877	0.346962	3579.098633
9543.001552	1.170055	0.315279	518.334351
9543.002448	1.654589	0.315279	2000.845703
9543.003408	0.787592	0.315279	2756.933594
9543.004324	0.089333	0.315279	2838.763184
9543.005227	0.084899	0.315279	2915.426758
9543.006111	0.084869	0.315279	2990.451172
9543.007042	0.084950	0.315279	3069.539551
9543.007946	0.084888	0.315279	3146.278076
9543.008837	0.084873	0.315279	3221.899902
9543.009771	0.084943	0.315279	3301.236328
9543.010687	0.084880	0.315279	3378.986816
9543.011599	0.084873	0.315279	3456.391113
9543.012489	0.084829	0.315279	3531.888916
9544.018375	1.171077	0.347357	511.760498
9544.019347	1.656592	0.347357	2121.967773
9544.020275	0.711185	0.347357	2781.947754
9544.021172	0.088015	0.347357	2860.897217
9544.022097	0.084792	0.347357	2939.330322
9544.023041	0.084829	0.347357	3019.408936
9544.023964	0.084913	0.347357	3097.783936
9544.024857	0.084774	0.347357	3173.487305
9544.025807	0.084844	0.347357	3254.088867
9544.026735	0.084851	0.347357	3332.830566
9544.027637	0.084961	0.347357	3409.465332
9544.028564	0.084895	0.347357	3488.163086
9544.029495	0.084891	0.347357	3567.197021
9545.071093	1.178108	0.312786	566.669861
9545.072039	1.656167	0.312786	2133.403809
9545.072988	0.667244	0.312786	2766.618164
9545.073871	0.087400	0.312786	2843.792236
9545.074795	0.084928	0.312786	2922.265625
9545.075729	0.084862	0.312786	3001.526855
9545.076643	0.084946	0.312786	3079.167725
9545.077532	0.084880	0.312786	3154.626465
9545.078486	0.084899	0.312786	3235.619873
9545.079431	0.084891	0.312786	3315.842285
9545.080332	0.084946	0.312786	3392.378906
9545.081261	0.084825	0.312786	3471.181641
9545.082198	0.084976	0.312786	3550.803711
9546.086908	1.230505	0.346946	596.795105
9546.087828	1.656566	0.346946	2120.835937
9546.088762	0.705205	0.346946	2779.497559
9546.089655	0.088209	0.346946	2858.268311
9546.090611	0.084946	0.346946	2939.477051
9546.091514	0.084866	0.346946	3016.110840
9546.092401	0.084979	0.346946	3091.487549
9546.093344	0.084939	0.346946	3171.584961
9546.094245	0.084935	0.346946	3248.111572
9546.095160	0.084972	0.346946	3325.860840
9546.096059	0.084855	0.346946	3402.145264
9546.096995	0.085034	0.346946	3481.737305
9546.097914	0.084880	0.346946	3559.742432
9547.138505	1.159933	0.313668	504.570801
9547.139460	1.654292	0.313668	2084.419678
9547.140393	0.738812	0.313668	2773.731445
9547.141291	0.088557	0.313668	2853.255859
9547.142177	0.084855	0.313668	2928.437256
9547.143126	0.084946	0.313668	3009.051270
9547.144035	0.084869	0.313668	3086.197510
9547.144931	0.084855	0.313668	3162.227295
9547.145819	0.084917	0.313668	3237.633545
9547.146759	0.084807	0.313668	3317.352295
9547.147662	0.084855	0.313668	3393.976074
9547.148551	0.084910	0.313668	3469.460693
9547.149478	0.084913	0.313668	3548.175293
9548.156398	1.188135	0.347180	558.423279
9548.157305	1.656174	0.347180	2060.573486
9548.158245	0.763649	0.347180	2778.403320
9548.159181	0.088286	0.347180	2861.039062
9548.160100	0.084888	0.347180	2939.050781
9548.160988	0.084983	0.347180	3014.515625
9548.161928	0.084939	0.347180	3094.358154
9548.162869	0.084825	0.347180	3174.178955
9548.163764	0.084917	0.347180	3250.179687
9548.164668	0.084847	0.347180	3326.881836
9548.165603	0.084851	0.347180	3406.217529
9548.166534	0.084866	0.347180	3485.227539
9548.167430	0.084895	0.347180	3561.293457
9549.206982	1.162039	0.311501	505.486786
9549.207961	1.656746	0.311501	2127.440674
9549.208892	0.698991	0.311501	2778.200928
9549.209779	0.088088	0.311501	2856.335205
9549.210709	0.084807	0.311501	2935.205811
9549.211647	0.084917	0.311501	3014.857910
9549.212564	0.084880	0.311501	3092.693115
9549.213451	0.084891	0.311501	3167.991699
9549.214391	0.084767	0.311501	3247.672607
9549.215327	0.084851	0.311501	3327.093262
9549.216228	0.084917	0.311501	3403.603516
9549.217143	0.084847	0.311501	3481.239014
9549.218076	0.084888	0.311501	3560.439209
9550.224849	1.166799	0.346281	520.392517
9550.225744	1.654116	0.346281	2000.826660
9550.226727	0.754292	0.346281	2742.295654
9550.227621	0.088546	0.346281	2821.455811
9550.228511	0.084800	0.346281	2896.927734
9550.229442	0.085009	0.346281	2976.070801
9550.230367	0.084851	0.346281	3054.558105
9550.231273	0.084792	0.346281	3131.380127
9550.232163	0.084906	0.346281	3206.946533
9550.233109	0.084979	0.346281	3287.336914
9550.234018	0.084778	0.346281	3364.399902
9550.234934	0.084928	0.346281	3442.193848
9550.235822	0.084895	0.346281	3517.580566
9551.274439	1.157329	0.312153	505.752808
9551.275413	1.654958	0.312153	2117.682373
9551.276333	0.735824	0.312153	2794.640381
9551.277228	0.088425	0.312153	2873.781006
9551.278118	0.084840	0.312153	2949.288574
9551.279049	0.084954	0.312153	3028.380371
9551.279956	0.084913	0.312153	3105.396729
9551.280858	0.084917	0.312153	3181.991943
9551.281781	0.084844	0.312153	3260.302734
9551.282685	0.084961	0.312153	3337.107422
9551.283597	0.084946	0.312153	3414.578369
9551.284488	0.084847	0.312153	3490.177490
9551.285424	0.084950	0.312153	3569.690674
9552.293316	1.153960	0.348839	500.818573
9552.294256	1.654977	0.348839	2056.496826
9552.295225	0.702587	0.348839	2737.303223
9552.296146	0.087469	0.348839	2817.862549
9552.297037	0.084906	0.348839	2893.513916
9552.297994	0.084873	0.348839	2974.737305
9552.298932	0.084924	0.348839	3054.396240
9552.299831	0.084921	0.348839	3130.739990
9552.300757	0.084873	0.348839	3209.332520
9552.301692	0.084935	0.348839	3288.747070
9552.302621	0.084771	0.348839	3367.498779
9552.303524	0.084921	0.348839	3444.182129
9552.304448	0.084818	0.348839	3522.553955
9553.342919	1.161563	0.308367	509.925964
9553.343887	1.656072	0.308367	2113.003418
9553.344827	0.700811	0.308367	2771.765381
9553.345730	0.087513	0.308367	2850.790039
9553.346649	0.084862	0.308367	2928.778320
9553.347582	0.084847	0.308367	3007.940918
9553.348512	0.084836	0.308367	3086.838867
9553.349410	0.084877	0.308367	3163.058105
9553.350338	0.084847	0.308367	3241.796387
9553.351276	0.084880	0.308367	3321.414062
9553.352193	0.084869	0.308367	3399.239258
9553.353081	0.084829	0.308367	3474.567383
9553.354022	0.084814	0.308367	3554.377686
9554.361836	1.174761	0.347143	549.788025
9554.362773	1.657013	0.347143	2102.409180
9554.363688	0.747191	0.347143	2786.089111
9554.364576	0.089004	0.347143	2865.124512
9554.365525	0.084968	0.347143	2945.759277
9554.366441	0.084807	0.347143	3023.442627
9554.367341	0.084811	0.347143	3099.772461
9554.368232	0.084880	0.347143	3175.400879
9554.369161	0.085056	0.347143	3254.417969
9554.370068	0.084888	0.347143	3331.411133
9554.370986	0.084921	0.347143	3409.368408
9554.371883	0.084965	0.347143	3485.581543
9554.372831	0.084869	0.347143	3566.037598
